 Timestamp (Formatted), EXG Channel 0, EXG Channel 1, EXG Channel 2, EXG Channel 3, EXG Channel 4, EXG Channel 5, EXG Channel 6, EXG Channel 7, Accel Channel 0, Accel Channel 1, Accel Channel 2, Other, Other.1, Other.2, Other.3, Other.4, Other.5, Other.6, Analog Channel 0, Analog Channel 1, Analog Channel 2, Other.7
 2023-06-27 18:22:34.485,-187500.0224,-187500.0224,-187500.0224,-182979.8738,-187500.0224,-187500.0224,-187500.0224,-187500.0224,0.344,-0.066,0.928,192,0,0,0,0,0,0,0,0,0,0
 2023-06-27 18:22:34.485,-187500.0224,-187500.0224,-187500.0224,-182186.7221,-187500.0224,-187500.0224,-187500.0224,-187500.0224,0.344,-0.066,0.928,192,0,0,0,0,0,0,0,0,0,0
 2023-06-27 18:22:34.485,-187500.0224,-187500.0224,-187500.0224,-181866.891,-187500.0224,-187500.0224,-187500.0224,-187500.0224,0.344,-0.066,0.928,192,0,0,0,0,0,0,0,0,0,0
 2023-06-27 18:22:34.485,-187500.0224,-187500.0224,-187500.0224,-182429.1491,-187500.0224,-187500.0224,-187500.0224,-187500.0224,0.344,-0.066,0.928,192,0,0,0,0,0,0,0,0,0,0
 2023-06-27 18:22:34.485,-187500.0224,-187500.0224,-187500.0224,-183107.8822,-187500.0224,-187500.0224,-187500.0224,-187500.0224,0.344,-0.062,0.928,192,10,192,254,16,29,0,0,0,0,0
 2023-06-27 18:22:34.485,-187500.0224,-187500.0224,-187500.0224,-182990.7591,-187500.0224,-187500.0224,-187500.0224,-187500.0224,0.344,-0.062,0.928,192,0,0,0,0,0,0,0,0,0,0
 2023-06-27 18:22:34.485,-187500.0224,-187500.0224,-187500.0224,-182201.8543,-187500.0224,-187500.0224,-187500.0224,-187500.0224,0.344,-0.062,0.928,192,0,0,0,0,0,0,0,0,0,0
 2023-06-27 18:22:34.485,-187500.0224,-187500.0224,-187500.0224,-181872.0766,-187500.0224,-187500.0224,-187500.0224,-187500.0224,0.344,-0.062,0.928,192,0,0,0,0,0,0,0,0,0,0
 2023-06-27 18:22:34.485,-187500.0224,-187500.0224,-187500.0224,-182418.8897,-187500.0224,-187500.0224,-187500.0224,-187500.0224,0.344,-0.062,0.928,192,0,0,0,0,0,0,0,0,0,0
 2023-06-27 18:22:34.485,-187500.0224,-187500.0224,-187500.0224,-183104.44,-187500.0224,-187500.0224,-187500.0224,-187500.0224,0.344,-0.062,0.928,192,0,0,0,0,0,0,0,0,0,0
 2023-06-27 18:22:34.485,-187500.0224,-187500.0224,-187500.0224,-183003.4996,-187500.0224,-187500.0224,-187500.0224,-187500.0224,0.344,-0.062,0.928,192,0,0,0,0,0,0,0,0,0,0
 2023-06-27 18:22:34.485,-187500.0224,-187500.0224,-187500.0224,-182219.2216,-187500.0224,-187500.0224,-187500.0224,-187500.0224,0.344,-0.062,0.928,192,0,0,0,0,0,0,0,0,0,0
 2023-06-27 18:22:34.485,-187500.0224,-187500.0224,-187500.0224,-181875.1165,-187500.0224,-187500.0224,-187500.0224,-187500.0224,0.344,-0.062,0.928,192,0,0,0,0,0,0,0,0,0,0
 2023-06-27 18:22:34.485,-187500.0224,-187500.0224,-187500.0224,-182411.0889,-187500.0224,-187500.0224,-187500.0224,-187500.0224,0.344,-0.062,0.928,192,0,0,0,0,0,0,0,0,0,0
 2023-06-27 18:22:34.485,-187500.0224,-187500.0224,-187500.0224,-183104.9765,-187500.0224,-187500.0224,-187500.0224,-187500.0224,0.346,-0.066,0.924,192,10,208,253,240,28,224,0,0,0,0
 2023-06-27 18:22:34.485,-187500.0224,-187500.0224,-187500.0224,-183012.9767,-187500.0224,-187500.0224,-187500.0224,-187500.0224,0.346,-0.066,0.924,192,0,0,0,0,0,0,0,0,0,0
 2023-06-27 18:22:34.485,-187500.0224,-187500.0224,-187500.0224,-182231.1797,-187500.0224,-187500.0224,-187500.0224,-187500.0224,0.346,-0.066,0.924,192,0,0,0,0,0,0,0,0,0,0
 2023-06-27 18:22:34.485,-187500.0224,-187500.0224,-187500.0224,-181877.1728,-187500.0224,-187500.0224,-187500.0224,-187500.0224,0.346,-0.066,0.924,192,0,0,0,0,0,0,0,0,0,0
 2023-06-27 18:22:34.485,-187500.0224,-187500.0224,-187500.0224,-182402.6847,-187500.0224,-187500.0224,-187500.0224,-187500.0224,0.346,-0.066,0.924,192,0,0,0,0,0,0,0,0,0,0
 2023-06-27 18:22:34.485,-187500.0224,-187500.0224,-187500.0224,-183106.027,-187500.0224,-187500.0224,-187500.0224,-187500.0224,0.346,-0.066,0.924,192,0,0,0,0,0,0,0,0,0,0
 2023-06-27 18:22:34.485,-187500.0224,-187500.0224,-187500.0224,-183032.1545,-187500.0224,-187500.0224,-187500.0224,-187500.0224,0.346,-0.066,0.924,192,0,0,0,0,0,0,0,0,0,0
 2023-06-27 18:22:34.485,-187500.0224,-187500.0224,-187500.0224,-182253.0621,-187500.0224,-187500.0224,-187500.0224,-187500.0224,0.346,-0.066,0.924,192,0,0,0,0,0,0,0,0,0,0
 2023-06-27 18:22:34.485,-187500.0224,-187500.0224,-187500.0224,-181886.7394,-187500.0224,-187500.0224,-187500.0224,-187500.0224,0.346,-0.066,0.924,192,0,0,0,0,0,0,0,0,0,0
 2023-06-27 18:22:34.485,-187500.0224,-187500.0224,-187500.0224,-182402.3494,-187500.0224,-187500.0224,-187500.0224,-187500.0224,0.346,-0.066,0.924,192,0,0,0,0,0,0,0,0,0,0
 2023-06-27 18:22:34.485,-187500.0224,-187500.0224,-187500.0224,-183108.821,-187500.0224,-187500.0224,-187500.0224,-187500.0224,0.346,-0.066,0.922,192,10,208,253,240,28,208,0,0,0,0
 2023-06-27 18:22:34.485,-187500.0224,-187500.0224,-187500.0224,-183043.3974,-187500.0224,-187500.0224,-187500.0224,-187500.0224,0.346,-0.066,0.922,192,0,0,0,0,0,0,0,0,0,0
 2023-06-27 18:22:34.485,-187500.0224,-187500.0224,-187500.0224,-182267.3002,-187500.0224,-187500.0224,-187500.0224,-187500.0224,0.346,-0.066,0.922,192,0,0,0,0,0,0,0,0,0,0
 2023-06-27 18:22:34.485,-187500.0224,-187500.0224,-187500.0224,-181890.9862,-187500.0224,-187500.0224,-187500.0224,-187500.0224,0.346,-0.066,0.922,192,0,0,0,0,0,0,0,0,0,0
 2023-06-27 18:22:34.485,-187500.0224,-187500.0224,-187500.0224,-182397.8791,-187500.0224,-187500.0224,-187500.0224,-187500.0224,0.346,-0.066,0.922,192,0,0,0,0,0,0,0,0,0,0
 2023-06-27 18:22:34.485,-187500.0224,-187500.0224,-187500.0224,-183114.4089,-187500.0224,-187500.0224,-187500.0224,-187500.0224,0.346,-0.066,0.922,192,0,0,0,0,0,0,0,0,0,0
 2023-06-27 18:22:34.485,-187500.0224,-187500.0224,-187500.0224,-183062.0164,-187500.0224,-187500.0224,-187500.0224,-187500.0224,0.346,-0.066,0.922,192,0,0,0,0,0,0,0,0,0,0
 2023-06-27 18:22:34.485,-187500.0224,-187500.0224,-187500.0224,-182287.5732,-187500.0224,-187500.0224,-187500.0224,-187500.0224,0.346,-0.066,0.922,192,0,0,0,0,0,0,0,0,0,0
 2023-06-27 18:22:34.485,-187500.0224,-187500.0224,-187500.0224,-181895.0989,-187500.0224,-187500.0224,-187500.0224,-187500.0224,0.346,-0.066,0.922,192,0,0,0,0,0,0,0,0,0,0
 2023-06-27 18:22:34.485,-187500.0224,-187500.0224,-187500.0224,-182386.8596,-187500.0224,-187500.0224,-187500.0224,-187500.0224,0.346,-0.066,0.922,192,0,0,0,0,0,0,0,0,0,0
 2023-06-27 18:22:34.485,-187500.0224,-187500.0224,-187500.0224,-183110.1621,-187500.0224,-187500.0224,-187500.0224,-187500.0224,0.348,-0.066,0.926,192,10,224,253,240,28,240,0,0,0,0
 2023-06-27 18:22:34.485,-187500.0224,-187500.0224,-187500.0224,-183071.7618,-187500.0224,-187500.0224,-187500.0224,-187500.0224,0.348,-0.066,0.926,192,0,0,0,0,0,0,0,0,0,0
 2023-06-27 18:22:34.485,-187500.0224,-187500.0224,-187500.0224,-182303.2865,-187500.0224,-187500.0224,-187500.0224,-187500.0224,0.348,-0.066,0.926,192,0,0,0,0,0,0,0,0,0,0
 2023-06-27 18:22:34.485,-187500.0224,-187500.0224,-187500.0224,-181902.1621,-187500.0224,-187500.0224,-187500.0224,-187500.0224,0.348,-0.066,0.926,192,0,0,0,0,0,0,0,0,0,0
 2023-06-27 18:22:34.485,-187500.0224,-187500.0224,-187500.0224,-182383.6186,-187500.0224,-187500.0224,-187500.0224,-187500.0224,0.348,-0.066,0.926,192,0,0,0,0,0,0,0,0,0,0
 2023-06-27 18:22:34.485,-187500.0224,-187500.0224,-187500.0224,-183110.9891,-187500.0224,-187500.0224,-187500.0224,-187500.0224,0.348,-0.066,0.926,192,0,0,0,0,0,0,0,0,0,0
 2023-06-27 18:22:34.485,-187500.0224,-187500.0224,-187500.0224,-183083.5188,-187500.0224,-187500.0224,-187500.0224,-187500.0224,0.348,-0.066,0.926,192,0,0,0,0,0,0,0,0,0,0
 2023-06-27 18:22:34.485,-187500.0224,-187500.0224,-187500.0224,-182318.061,-187500.0224,-187500.0224,-187500.0224,-187500.0224,0.348,-0.066,0.926,192,0,0,0,0,0,0,0,0,0,0
 2023-06-27 18:22:34.485,-187500.0224,-187500.0224,-187500.0224,-181902.4973,-187500.0224,-187500.0224,-187500.0224,-187500.0224,0.348,-0.066,0.926,192,0,0,0,0,0,0,0,0,0,0
 2023-06-27 18:22:34.485,-187500.0224,-187500.0224,-187500.0224,-182370.2523,-187500.0224,-187500.0224,-187500.0224,-187500.0224,0.348,-0.066,0.926,192,0,0,0,0,0,0,0,0,0,0
 2023-06-27 18:22:34.485,-187500.0224,-187500.0224,-187500.0224,-183105.58,-187500.0224,-187500.0224,-187500.0224,-187500.0224,0.346,-0.068,0.922,192,10,208,253,224,28,208,0,0,0,0
 2023-06-27 18:22:34.485,-187500.0224,-187500.0224,-187500.0224,-183092.9065,-187500.0224,-187500.0224,-187500.0224,-187500.0224,0.346,-0.068,0.922,192,0,0,0,0,0,0,0,0,0,0
 2023-06-27 18:22:34.485,-187500.0224,-187500.0224,-187500.0224,-182335.5624,-187500.0224,-187500.0224,-187500.0224,-187500.0224,0.346,-0.068,0.922,192,0,0,0,0,0,0,0,0,0,0
 2023-06-27 18:22:34.485,-187500.0224,-187500.0224,-187500.0224,-181911.8627,-187500.0224,-187500.0224,-187500.0224,-187500.0224,0.346,-0.068,0.922,192,0,0,0,0,0,0,0,0,0,0
 2023-06-27 18:22:34.485,-187500.0224,-187500.0224,-187500.0224,-182371.7499,-187500.0224,-187500.0224,-187500.0224,-187500.0224,0.346,-0.068,0.922,192,0,0,0,0,0,0,0,0,0,0
 2023-06-27 18:22:34.485,-187500.0224,-187500.0224,-187500.0224,-183109.3574,-187500.0224,-187500.0224,-187500.0224,-187500.0224,0.346,-0.068,0.922,192,0,0,0,0,0,0,0,0,0,0
 2023-06-27 18:22:34.485,-187500.0224,-187500.0224,-187500.0224,-183105.8706,-187500.0224,-187500.0224,-187500.0224,-187500.0224,0.346,-0.068,0.922,192,0,0,0,0,0,0,0,0,0,0
 2023-06-27 18:22:34.485,-187500.0224,-187500.0224,-187500.0224,-182352.6168,-187500.0224,-187500.0224,-187500.0224,-187500.0224,0.346,-0.068,0.922,192,0,0,0,0,0,0,0,0,0,0
 2023-06-27 18:22:34.485,-187500.0224,-187500.0224,-187500.0224,-181914.1202,-187500.0224,-187500.0224,-187500.0224,-187500.0224,0.346,-0.068,0.922,192,0,0,0,0,0,0,0,0,0,0
 2023-06-27 18:22:34.485,-187500.0224,-187500.0224,-187500.0224,-182359.9258,-187500.0224,-187500.0224,-187500.0224,-187500.0224,0.346,-0.068,0.922,192,0,0,0,0,0,0,0,0,0,0
 2023-06-27 18:22:34.485,-187500.0224,-187500.0224,-187500.0224,-183108.4857,-187500.0224,-187500.0224,-187500.0224,-187500.0224,0.342,-0.068,0.922,192,10,176,253,224,28,208,0,0,0,0
 2023-06-27 18:22:34.485,-187500.0224,-187500.0224,-187500.0224,-183121.2262,-187500.0224,-187500.0224,-187500.0224,-187500.0224,0.342,-0.068,0.922,192,0,0,0,0,0,0,0,0,0,0
 2023-06-27 18:22:34.485,-187500.0224,-187500.0224,-187500.0224,-182372.6216,-187500.0224,-187500.0224,-187500.0224,-187500.0224,0.342,-0.068,0.922,192,0,0,0,0,0,0,0,0,0,0
 2023-06-27 18:22:34.485,-187500.0224,-187500.0224,-187500.0224,-181923.1056,-187500.0224,-187500.0224,-187500.0224,-187500.0224,0.342,-0.068,0.922,192,0,0,0,0,0,0,0,0,0,0
 2023-06-27 18:22:34.485,-187500.0224,-187500.0224,-187500.0224,-182354.8072,-187500.0224,-187500.0224,-187500.0224,-187500.0224,0.342,-0.068,0.922,192,0,0,0,0,0,0,0,0,0,0
 2023-06-27 18:22:34.485,-187500.0224,-187500.0224,-187500.0224,-183102.7413,-187500.0224,-187500.0224,-187500.0224,-187500.0224,0.342,-0.068,0.922,192,0,0,0,0,0,0,0,0,0,0
 2023-06-27 18:22:34.485,-187500.0224,-187500.0224,-187500.0224,-183127.2612,-187500.0224,-187500.0224,-187500.0224,-187500.0224,0.342,-0.068,0.922,192,0,0,0,0,0,0,0,0,0,0
 2023-06-27 18:22:34.485,-187500.0224,-187500.0224,-187500.0224,-182389.0278,-187500.0224,-187500.0224,-187500.0224,-187500.0224,0.342,-0.068,0.922,192,0,0,0,0,0,0,0,0,0,0
 2023-06-27 18:22:34.485,-187500.0224,-187500.0224,-187500.0224,-181928.2689,-187500.0224,-187500.0224,-187500.0224,-187500.0224,0.342,-0.068,0.922,192,0,0,0,0,0,0,0,0,0,0
 2023-06-27 18:22:34.485,-187500.0224,-187500.0224,-187500.0224,-182347.1182,-187500.0224,-187500.0224,-187500.0224,-187500.0224,0.342,-0.068,0.922,192,0,0,0,0,0,0,0,0,0,0
 2023-06-27 18:22:34.485,-187500.0224,-187500.0224,-187500.0224,-183104.9541,-187500.0224,-187500.0224,-187500.0224,-187500.0224,0.348,-0.07,0.922,192,10,224,253,208,28,208,0,0,0,0
 2023-06-27 18:22:34.485,-187500.0224,-187500.0224,-187500.0224,-183142.7062,-187500.0224,-187500.0224,-187500.0224,-187500.0224,0.348,-0.07,0.922,192,0,0,0,0,0,0,0,0,0,0
 2023-06-27 18:22:34.485,-187500.0224,-187500.0224,-187500.0224,-182405.0316,-187500.0224,-187500.0224,-187500.0224,-187500.0224,0.348,-0.07,0.922,192,0,0,0,0,0,0,0,0,0,0
 2023-06-27 18:22:34.485,-187500.0224,-187500.0224,-187500.0224,-181933.6333,-187500.0224,-187500.0224,-187500.0224,-187500.0224,0.348,-0.07,0.922,192,0,0,0,0,0,0,0,0,0,0
 2023-06-27 18:22:34.485,-187500.0224,-187500.0224,-187500.0224,-182341.5527,-187500.0224,-187500.0224,-187500.0224,-187500.0224,0.348,-0.07,0.922,192,0,0,0,0,0,0,0,0,0,0
 2023-06-27 18:22:34.485,-187500.0224,-187500.0224,-187500.0224,-183103.4789,-187500.0224,-187500.0224,-187500.0224,-187500.0224,0.348,-0.07,0.922,192,0,0,0,0,0,0,0,0,0,0
 2023-06-27 18:22:34.485,-187500.0224,-187500.0224,-187500.0224,-183155.6032,-187500.0224,-187500.0224,-187500.0224,-187500.0224,0.348,-0.07,0.922,192,0,0,0,0,0,0,0,0,0,0
 2023-06-27 18:22:34.485,-187500.0224,-187500.0224,-187500.0224,-182426.0422,-187500.0224,-187500.0224,-187500.0224,-187500.0224,0.348,-0.07,0.922,192,0,0,0,0,0,0,0,0,0,0
 2023-06-27 18:22:34.485,-187500.0224,-187500.0224,-187500.0224,-181941.2106,-187500.0224,-187500.0224,-187500.0224,-187500.0224,0.348,-0.07,0.922,192,0,0,0,0,0,0,0,0,0,0
 2023-06-27 18:22:34.485,-187500.0224,-187500.0224,-187500.0224,-182335.2942,-187500.0224,-187500.0224,-187500.0224,-187500.0224,0.348,-0.07,0.922,192,0,0,0,0,0,0,0,0,0,0
 2023-06-27 18:22:34.485,-187500.0224,-187500.0224,-187500.0224,-183103.3895,-187500.0224,-187500.0224,-187500.0224,-187500.0224,0.344,-0.064,0.922,192,10,192,254,0,28,208,0,0,0,0
 2023-06-27 18:22:34.485,-187500.0224,-187500.0224,-187500.0224,-183168.0978,-187500.0224,-187500.0224,-187500.0224,-187500.0224,0.344,-0.064,0.922,192,0,0,0,0,0,0,0,0,0,0
 2023-06-27 18:22:34.964,-187500.0224,-187500.0224,-187500.0224,-182443.7001,-187500.0224,-187500.0224,-187500.0224,-187500.0224,0.344,-0.064,0.922,192,0,0,0,0,0,0,0,0,0,0
 2023-06-27 18:22:34.964,-187500.0224,-187500.0224,-187500.0224,-181951.1571,-187500.0224,-187500.0224,-187500.0224,-187500.0224,0.344,-0.064,0.922,192,0,0,0,0,0,0,0,0,0,0
 2023-06-27 18:22:34.964,-187500.0224,-187500.0224,-187500.0224,-182335.6071,-187500.0224,-187500.0224,-187500.0224,-187500.0224,0.344,-0.064,0.922,192,0,0,0,0,0,0,0,0,0,0
 2023-06-27 18:22:34.964,-187500.0224,-187500.0224,-187500.0224,-183105.4235,-187500.0224,-187500.0224,-187500.0224,-187500.0224,0.344,-0.064,0.922,192,0,0,0,0,0,0,0,0,0,0
 2023-06-27 18:22:34.964,-187500.0224,-187500.0224,-187500.0224,-183180.3466,-187500.0224,-187500.0224,-187500.0224,-187500.0224,0.344,-0.064,0.922,192,0,0,0,0,0,0,0,0,0,0
 2023-06-27 18:22:34.964,-187500.0224,-187500.0224,-187500.0224,-182464.599,-187500.0224,-187500.0224,-187500.0224,-187500.0224,0.344,-0.064,0.922,192,0,0,0,0,0,0,0,0,0,0
 2023-06-27 18:22:34.964,-187500.0224,-187500.0224,-187500.0224,-181959.4943,-187500.0224,-187500.0224,-187500.0224,-187500.0224,0.344,-0.064,0.922,192,0,0,0,0,0,0,0,0,0,0
 2023-06-27 18:22:34.964,-187500.0224,-187500.0224,-187500.0224,-182328.9686,-187500.0224,-187500.0224,-187500.0224,-187500.0224,0.344,-0.064,0.922,192,0,0,0,0,0,0,0,0,0,0
 2023-06-27 18:22:34.964,-187500.0224,-187500.0224,-187500.0224,-183102.2719,-187500.0224,-187500.0224,-187500.0224,-187500.0224,0.344,-0.062,0.924,192,10,192,254,16,28,224,0,0,0,0
 2023-06-27 18:22:34.964,-187500.0224,-187500.0224,-187500.0224,-183190.5166,-187500.0224,-187500.0224,-187500.0224,-187500.0224,0.344,-0.062,0.924,192,0,0,0,0,0,0,0,0,0,0
 2023-06-27 18:22:34.964,-187500.0224,-187500.0224,-187500.0224,-182478.9488,-187500.0224,-187500.0224,-187500.0224,-187500.0224,0.344,-0.062,0.924,192,0,0,0,0,0,0,0,0,0,0
 2023-06-27 18:22:34.965,-187500.0224,-187500.0224,-187500.0224,-181961.3048,-187500.0224,-187500.0224,-187500.0224,-187500.0224,0.344,-0.062,0.924,192,0,0,0,0,0,0,0,0,0,0
 2023-06-27 18:22:34.965,-187500.0224,-187500.0224,-187500.0224,-182318.5751,-187500.0224,-187500.0224,-187500.0224,-187500.0224,0.344,-0.062,0.924,192,0,0,0,0,0,0,0,0,0,0
 2023-06-27 18:22:34.965,-187500.0224,-187500.0224,-187500.0224,-183095.8346,-187500.0224,-187500.0224,-187500.0224,-187500.0224,0.344,-0.062,0.924,192,0,0,0,0,0,0,0,0,0,0
 2023-06-27 18:22:34.965,-187500.0224,-187500.0224,-187500.0224,-183195.7693,-187500.0224,-187500.0224,-187500.0224,-187500.0224,0.344,-0.062,0.924,192,0,0,0,0,0,0,0,0,0,0
 2023-06-27 18:22:34.965,-187500.0224,-187500.0224,-187500.0224,-182495.8691,-187500.0224,-187500.0224,-187500.0224,-187500.0224,0.344,-0.062,0.924,192,0,0,0,0,0,0,0,0,0,0
 2023-06-27 18:22:34.965,-187500.0224,-187500.0224,-187500.0224,-181968.1668,-187500.0224,-187500.0224,-187500.0224,-187500.0224,0.344,-0.062,0.924,192,0,0,0,0,0,0,0,0,0,0
 2023-06-27 18:22:34.965,-187500.0224,-187500.0224,-187500.0224,-182313.0989,-187500.0224,-187500.0224,-187500.0224,-187500.0224,0.344,-0.062,0.924,192,0,0,0,0,0,0,0,0,0,0
 2023-06-27 18:22:34.965,-187500.0224,-187500.0224,-187500.0224,-183097.3545,-187500.0224,-187500.0224,-187500.0224,-187500.0224,0.342,-0.06,0.916,192,10,176,254,32,28,160,0,0,0,0
 2023-06-27 18:22:34.965,-187500.0224,-187500.0224,-187500.0224,-183211.3037,-187500.0224,-187500.0224,-187500.0224,-187500.0224,0.342,-0.06,0.916,192,0,0,0,0,0,0,0,0,0,0
 2023-06-27 18:22:34.965,-187500.0224,-187500.0224,-187500.0224,-182517.9079,-187500.0224,-187500.0224,-187500.0224,-187500.0224,0.342,-0.06,0.916,192,0,0,0,0,0,0,0,0,0,0
 2023-06-27 18:22:34.965,-187500.0224,-187500.0224,-187500.0224,-181980.8402,-187500.0224,-187500.0224,-187500.0224,-187500.0224,0.342,-0.06,0.916,192,0,0,0,0,0,0,0,0,0,0
 2023-06-27 18:22:34.965,-187500.0224,-187500.0224,-187500.0224,-182312.2495,-187500.0224,-187500.0224,-187500.0224,-187500.0224,0.342,-0.06,0.916,192,0,0,0,0,0,0,0,0,0,0
 2023-06-27 18:22:34.965,-187500.0224,-187500.0224,-187500.0224,-183097.511,-187500.0224,-187500.0224,-187500.0224,-187500.0224,0.342,-0.06,0.916,192,0,0,0,0,0,0,0,0,0,0
 2023-06-27 18:22:34.965,-187500.0224,-187500.0224,-187500.0224,-183220.2891,-187500.0224,-187500.0224,-187500.0224,-187500.0224,0.342,-0.06,0.916,192,0,0,0,0,0,0,0,0,0,0
 2023-06-27 18:22:34.965,-187500.0224,-187500.0224,-187500.0224,-182531.3637,-187500.0224,-187500.0224,-187500.0224,-187500.0224,0.342,-0.06,0.916,192,0,0,0,0,0,0,0,0,0,0
 2023-06-27 18:22:34.965,-187500.0224,-187500.0224,-187500.0224,-181984.4612,-187500.0224,-187500.0224,-187500.0224,-187500.0224,0.342,-0.06,0.916,192,0,0,0,0,0,0,0,0,0,0
 2023-06-27 18:22:34.965,-187500.0224,-187500.0224,-187500.0224,-182305.7228,-187500.0224,-187500.0224,-187500.0224,-187500.0224,0.342,-0.06,0.916,192,0,0,0,0,0,0,0,0,0,0
 2023-06-27 18:22:34.965,-187500.0224,-187500.0224,-187500.0224,-183090.6937,-187500.0224,-187500.0224,-187500.0224,-187500.0224,0.342,-0.06,0.916,192,0,0,0,0,0,0,0,0,0,0
 2023-06-27 18:22:34.965,-187500.0224,-187500.0224,-187500.0224,-183226.57,-187500.0224,-187500.0224,-187500.0224,-187500.0224,0.34,-0.064,0.916,192,10,160,254,0,28,160,0,0,0,0
 2023-06-27 18:22:34.965,-187500.0224,-187500.0224,-187500.0224,-182551.1003,-187500.0224,-187500.0224,-187500.0224,-187500.0224,0.34,-0.064,0.916,192,0,0,0,0,0,0,0,0,0,0
 2023-06-27 18:22:34.965,-187500.0224,-187500.0224,-187500.0224,-181997.7605,-187500.0224,-187500.0224,-187500.0224,-187500.0224,0.34,-0.064,0.916,192,0,0,0,0,0,0,0,0,0,0
 2023-06-27 18:22:34.965,-187500.0224,-187500.0224,-187500.0224,-182303.9347,-187500.0224,-187500.0224,-187500.0224,-187500.0224,0.34,-0.064,0.916,192,0,0,0,0,0,0,0,0,0,0
 2023-06-27 18:22:34.965,-187500.0224,-187500.0224,-187500.0224,-183094.2253,-187500.0224,-187500.0224,-187500.0224,-187500.0224,0.34,-0.064,0.916,192,0,0,0,0,0,0,0,0,0,0
 2023-06-27 18:22:34.965,-187500.0224,-187500.0224,-187500.0224,-183242.5962,-187500.0224,-187500.0224,-187500.0224,-187500.0224,0.34,-0.064,0.916,192,0,0,0,0,0,0,0,0,0,0
 2023-06-27 18:22:34.965,-187500.0224,-187500.0224,-187500.0224,-182571.2392,-187500.0224,-187500.0224,-187500.0224,-187500.0224,0.34,-0.064,0.916,192,0,0,0,0,0,0,0,0,0,0
 2023-06-27 18:22:34.965,-187500.0224,-187500.0224,-187500.0224,-182006.2094,-187500.0224,-187500.0224,-187500.0224,-187500.0224,0.34,-0.064,0.916,192,0,0,0,0,0,0,0,0,0,0
 2023-06-27 18:22:34.965,-187500.0224,-187500.0224,-187500.0224,-182302.7053,-187500.0224,-187500.0224,-187500.0224,-187500.0224,0.34,-0.064,0.916,192,0,0,0,0,0,0,0,0,0,0
 2023-06-27 18:22:34.965,-187500.0224,-187500.0224,-187500.0224,-183093.4877,-187500.0224,-187500.0224,-187500.0224,-187500.0224,0.34,-0.064,0.916,192,0,0,0,0,0,0,0,0,0,0
 2023-06-27 18:22:34.965,-187500.0224,-187500.0224,-187500.0224,-183251.5145,-187500.0224,-187500.0224,-187500.0224,-187500.0224,0.344,-0.062,0.916,192,10,192,254,16,28,160,0,0,0,0
 2023-06-27 18:22:34.965,-187500.0224,-187500.0224,-187500.0224,-182590.0817,-187500.0224,-187500.0224,-187500.0224,-187500.0224,0.344,-0.062,0.916,192,0,0,0,0,0,0,0,0,0,0
 2023-06-27 18:22:34.965,-187500.0224,-187500.0224,-187500.0224,-182012.982,-187500.0224,-187500.0224,-187500.0224,-187500.0224,0.344,-0.062,0.916,192,0,0,0,0,0,0,0,0,0,0
 2023-06-27 18:22:34.965,-187500.0224,-187500.0224,-187500.0224,-182293.7199,-187500.0224,-187500.0224,-187500.0224,-187500.0224,0.344,-0.062,0.916,192,0,0,0,0,0,0,0,0,0,0
 2023-06-27 18:22:34.965,-187500.0224,-187500.0224,-187500.0224,-183089.4197,-187500.0224,-187500.0224,-187500.0224,-187500.0224,0.344,-0.062,0.916,192,0,0,0,0,0,0,0,0,0,0
 2023-06-27 18:22:34.965,-187500.0224,-187500.0224,-187500.0224,-183261.7069,-187500.0224,-187500.0224,-187500.0224,-187500.0224,0.344,-0.062,0.916,192,0,0,0,0,0,0,0,0,0,0
 2023-06-27 18:22:34.965,-187500.0224,-187500.0224,-187500.0224,-182609.1477,-187500.0224,-187500.0224,-187500.0224,-187500.0224,0.344,-0.062,0.916,192,0,0,0,0,0,0,0,0,0,0
 2023-06-27 18:22:34.965,-187500.0224,-187500.0224,-187500.0224,-182025.1414,-187500.0224,-187500.0224,-187500.0224,-187500.0224,0.344,-0.062,0.916,192,0,0,0,0,0,0,0,0,0,0
 2023-06-27 18:22:34.965,-187500.0224,-187500.0224,-187500.0224,-182291.7083,-187500.0224,-187500.0224,-187500.0224,-187500.0224,0.344,-0.062,0.916,192,0,0,0,0,0,0,0,0,0,0
 2023-06-27 18:22:34.965,-187500.0224,-187500.0224,-187500.0224,-183085.8657,-187500.0224,-187500.0224,-187500.0224,-187500.0224,0.344,-0.062,0.916,192,0,0,0,0,0,0,0,0,0,0
 2023-06-27 18:22:34.965,-187500.0224,-187500.0224,-187500.0224,-183270.9829,-187500.0224,-187500.0224,-187500.0224,-187500.0224,0.348,-0.064,0.914,192,10,224,254,0,28,144,0,0,0,0
 2023-06-27 18:22:34.965,-187500.0224,-187500.0224,-187500.0224,-182626.5597,-187500.0224,-187500.0224,-187500.0224,-187500.0224,0.348,-0.064,0.914,192,0,0,0,0,0,0,0,0,0,0
 2023-06-27 18:22:34.965,-187500.0224,-187500.0224,-187500.0224,-182030.3717,-187500.0224,-187500.0224,-187500.0224,-187500.0224,0.348,-0.064,0.914,192,0,0,0,0,0,0,0,0,0,0
 2023-06-27 18:22:34.965,-187500.0224,-187500.0224,-187500.0224,-182288.1096,-187500.0224,-187500.0224,-187500.0224,-187500.0224,0.348,-0.064,0.914,192,0,0,0,0,0,0,0,0,0,0
 2023-06-27 18:22:34.965,-187500.0224,-187500.0224,-187500.0224,-183086.5139,-187500.0224,-187500.0224,-187500.0224,-187500.0224,0.348,-0.064,0.914,192,0,0,0,0,0,0,0,0,0,0
 2023-06-27 18:22:34.965,-187500.0224,-187500.0224,-187500.0224,-183281.5329,-187500.0224,-187500.0224,-187500.0224,-187500.0224,0.348,-0.064,0.914,192,0,0,0,0,0,0,0,0,0,0
 2023-06-27 18:22:34.965,-187500.0224,-187500.0224,-187500.0224,-182643.8376,-187500.0224,-187500.0224,-187500.0224,-187500.0224,0.348,-0.064,0.914,192,0,0,0,0,0,0,0,0,0,0
 2023-06-27 18:22:34.965,-187500.0224,-187500.0224,-187500.0224,-182038.7983,-187500.0224,-187500.0224,-187500.0224,-187500.0224,0.348,-0.064,0.914,192,0,0,0,0,0,0,0,0,0,0
 2023-06-27 18:22:34.965,-187500.0224,-187500.0224,-187500.0224,-182280.1971,-187500.0224,-187500.0224,-187500.0224,-187500.0224,0.348,-0.064,0.914,192,0,0,0,0,0,0,0,0,0,0
 2023-06-27 18:22:34.965,-187500.0224,-187500.0224,-187500.0224,-183078.3109,-187500.0224,-187500.0224,-187500.0224,-187500.0224,0.348,-0.064,0.914,192,0,0,0,0,0,0,0,0,0,0
 2023-06-27 18:22:34.965,-187500.0224,-187500.0224,-187500.0224,-183286.3609,-187500.0224,-187500.0224,-187500.0224,-187500.0224,0.344,-0.07,0.918,192,10,192,253,208,28,176,0,0,0,0
 2023-06-27 18:22:34.965,-187500.0224,-187500.0224,-187500.0224,-182661.0261,-187500.0224,-187500.0224,-187500.0224,-187500.0224,0.344,-0.07,0.918,192,0,0,0,0,0,0,0,0,0,0
 2023-06-27 18:22:34.965,-187500.0224,-187500.0224,-187500.0224,-182047.1578,-187500.0224,-187500.0224,-187500.0224,-187500.0224,0.344,-0.07,0.918,192,0,0,0,0,0,0,0,0,0,0
 2023-06-27 18:22:34.965,-187500.0224,-187500.0224,-187500.0224,-182279.236,-187500.0224,-187500.0224,-187500.0224,-187500.0224,0.344,-0.07,0.918,192,0,0,0,0,0,0,0,0,0,0
 2023-06-27 18:22:34.965,-187500.0224,-187500.0224,-187500.0224,-183077.238,-187500.0224,-187500.0224,-187500.0224,-187500.0224,0.344,-0.07,0.918,192,0,0,0,0,0,0,0,0,0,0
 2023-06-27 18:22:34.966,-187500.0224,-187500.0224,-187500.0224,-183296.1063,-187500.0224,-187500.0224,-187500.0224,-187500.0224,0.344,-0.07,0.918,192,0,0,0,0,0,0,0,0,0,0
 2023-06-27 18:22:34.966,-187500.0224,-187500.0224,-187500.0224,-182675.0183,-187500.0224,-187500.0224,-187500.0224,-187500.0224,0.344,-0.07,0.918,192,0,0,0,0,0,0,0,0,0,0
 2023-06-27 18:22:34.966,-187500.0224,-187500.0224,-187500.0224,-182053.4834,-187500.0224,-187500.0224,-187500.0224,-187500.0224,0.344,-0.07,0.918,192,0,0,0,0,0,0,0,0,0,0
 2023-06-27 18:22:34.966,-187500.0224,-187500.0224,-187500.0224,-182272.1505,-187500.0224,-187500.0224,-187500.0224,-187500.0224,0.344,-0.07,0.918,192,0,0,0,0,0,0,0,0,0,0
 2023-06-27 18:22:34.966,-187500.0224,-187500.0224,-187500.0224,-183073.3711,-187500.0224,-187500.0224,-187500.0224,-187500.0224,0.344,-0.07,0.918,192,0,0,0,0,0,0,0,0,0,0
 2023-06-27 18:22:34.966,-187500.0224,-187500.0224,-187500.0224,-183302.9459,-187500.0224,-187500.0224,-187500.0224,-187500.0224,0.34,-0.072,0.916,192,10,160,253,192,28,160,0,0,0,0
 2023-06-27 18:22:34.966,-187500.0224,-187500.0224,-187500.0224,-182692.788,-187500.0224,-187500.0224,-187500.0224,-187500.0224,0.34,-0.072,0.916,192,0,0,0,0,0,0,0,0,0,0
 2023-06-27 18:22:34.966,-187500.0224,-187500.0224,-187500.0224,-182065.2627,-187500.0224,-187500.0224,-187500.0224,-187500.0224,0.34,-0.072,0.916,192,0,0,0,0,0,0,0,0,0,0
 2023-06-27 18:22:34.966,-187500.0224,-187500.0224,-187500.0224,-182271.3011,-187500.0224,-187500.0224,-187500.0224,-187500.0224,0.34,-0.072,0.916,192,0,0,0,0,0,0,0,0,0,0
 2023-06-27 18:22:34.966,-187500.0224,-187500.0224,-187500.0224,-183070.5101,-187500.0224,-187500.0224,-187500.0224,-187500.0224,0.34,-0.072,0.916,192,0,0,0,0,0,0,0,0,0,0
 2023-06-27 18:22:34.966,-187500.0224,-187500.0224,-187500.0224,-183312.3783,-187500.0224,-187500.0224,-187500.0224,-187500.0224,0.34,-0.072,0.916,192,0,0,0,0,0,0,0,0,0,0
 2023-06-27 18:22:34.966,-187500.0224,-187500.0224,-187500.0224,-182711.0046,-187500.0224,-187500.0224,-187500.0224,-187500.0224,0.34,-0.072,0.916,192,0,0,0,0,0,0,0,0,0,0
 2023-06-27 18:22:34.966,-187500.0224,-187500.0224,-187500.0224,-182072.4377,-187500.0224,-187500.0224,-187500.0224,-187500.0224,0.34,-0.072,0.916,192,0,0,0,0,0,0,0,0,0,0
 2023-06-27 18:22:34.966,-187500.0224,-187500.0224,-187500.0224,-182265.445,-187500.0224,-187500.0224,-187500.0224,-187500.0224,0.34,-0.072,0.916,192,0,0,0,0,0,0,0,0,0,0
 2023-06-27 18:22:34.966,-187500.0224,-187500.0224,-187500.0224,-183066.3527,-187500.0224,-187500.0224,-187500.0224,-187500.0224,0.34,-0.072,0.916,192,0,0,0,0,0,0,0,0,0,0
 2023-06-27 18:22:34.966,-187500.0224,-187500.0224,-187500.0224,-183322.7719,-187500.0224,-187500.0224,-187500.0224,-187500.0224,0.342,-0.066,0.918,192,10,176,253,240,28,176,0,0,0,0
 2023-06-27 18:22:34.966,-187500.0224,-187500.0224,-187500.0224,-182730.1154,-187500.0224,-187500.0224,-187500.0224,-187500.0224,0.342,-0.066,0.918,192,0,0,0,0,0,0,0,0,0,0
 2023-06-27 18:22:34.966,-187500.0224,-187500.0224,-187500.0224,-182081.7807,-187500.0224,-187500.0224,-187500.0224,-187500.0224,0.342,-0.066,0.918,192,0,0,0,0,0,0,0,0,0,0
 2023-06-27 18:22:34.966,-187500.0224,-187500.0224,-187500.0224,-182261.0193,-187500.0224,-187500.0224,-187500.0224,-187500.0224,0.342,-0.066,0.918,192,0,0,0,0,0,0,0,0,0,0
 2023-06-27 18:22:34.966,-187500.0224,-187500.0224,-187500.0224,-183059.5801,-187500.0224,-187500.0224,-187500.0224,-187500.0224,0.342,-0.066,0.918,192,0,0,0,0,0,0,0,0,0,0
 2023-06-27 18:22:34.966,-187500.0224,-187500.0224,-187500.0224,-183326.7058,-187500.0224,-187500.0224,-187500.0224,-187500.0224,0.342,-0.066,0.918,192,0,0,0,0,0,0,0,0,0,0
 2023-06-27 18:22:34.966,-187500.0224,-187500.0224,-187500.0224,-182745.6498,-187500.0224,-187500.0224,-187500.0224,-187500.0224,0.342,-0.066,0.918,192,0,0,0,0,0,0,0,0,0,0
 2023-06-27 18:22:34.966,-187500.0224,-187500.0224,-187500.0224,-182089.1121,-187500.0224,-187500.0224,-187500.0224,-187500.0224,0.342,-0.066,0.918,192,0,0,0,0,0,0,0,0,0,0
 2023-06-27 18:22:34.966,-187500.0224,-187500.0224,-187500.0224,-182256.7278,-187500.0224,-187500.0224,-187500.0224,-187500.0224,0.342,-0.066,0.918,192,0,0,0,0,0,0,0,0,0,0
 2023-06-27 18:22:34.966,-187500.0224,-187500.0224,-187500.0224,-183055.5121,-187500.0224,-187500.0224,-187500.0224,-187500.0224,0.342,-0.066,0.918,192,0,0,0,0,0,0,0,0,0,0
 2023-06-27 18:22:34.966,-187500.0224,-187500.0224,-187500.0224,-183334.8642,-187500.0224,-187500.0224,-187500.0224,-187500.0224,0.342,-0.066,0.918,192,10,176,253,240,28,176,0,0,0,0
 2023-06-27 18:22:34.966,-187500.0224,-187500.0224,-187500.0224,-182763.8218,-187500.0224,-187500.0224,-187500.0224,-187500.0224,0.342,-0.066,0.918,192,0,0,0,0,0,0,0,0,0,0
 2023-06-27 18:22:34.966,-187500.0224,-187500.0224,-187500.0224,-182099.7962,-187500.0224,-187500.0224,-187500.0224,-187500.0224,0.342,-0.066,0.918,192,0,0,0,0,0,0,0,0,0,0
 2023-06-27 18:22:34.966,-187500.0224,-187500.0224,-187500.0224,-182252.928,-187500.0224,-187500.0224,-187500.0224,-187500.0224,0.342,-0.066,0.918,192,0,0,0,0,0,0,0,0,0,0
 2023-06-27 18:22:34.966,-187500.0224,-187500.0224,-187500.0224,-183050.5276,-187500.0224,-187500.0224,-187500.0224,-187500.0224,0.342,-0.066,0.918,192,0,0,0,0,0,0,0,0,0,0
 2023-06-27 18:22:34.966,-187500.0224,-187500.0224,-187500.0224,-183341.7932,-187500.0224,-187500.0224,-187500.0224,-187500.0224,0.342,-0.066,0.918,192,0,0,0,0,0,0,0,0,0,0
 2023-06-27 18:22:34.966,-187500.0224,-187500.0224,-187500.0224,-182782.7537,-187500.0224,-187500.0224,-187500.0224,-187500.0224,0.342,-0.066,0.918,192,0,0,0,0,0,0,0,0,0,0
 2023-06-27 18:22:34.966,-187500.0224,-187500.0224,-187500.0224,-182107.3064,-187500.0224,-187500.0224,-187500.0224,-187500.0224,0.342,-0.066,0.918,192,0,0,0,0,0,0,0,0,0,0
 2023-06-27 18:22:34.966,-187500.0224,-187500.0224,-187500.0224,-182249.24,-187500.0224,-187500.0224,-187500.0224,-187500.0224,0.342,-0.066,0.918,192,0,0,0,0,0,0,0,0,0,0
 2023-06-27 18:22:34.966,-187500.0224,-187500.0224,-187500.0224,-183046.5267,-187500.0224,-187500.0224,-187500.0224,-187500.0224,0.342,-0.066,0.918,192,0,0,0,0,0,0,0,0,0,0
 2023-06-27 18:22:34.966,-187500.0224,-187500.0224,-187500.0224,-183349.4152,-187500.0224,-187500.0224,-187500.0224,-187500.0224,0.342,-0.07,0.914,192,10,176,253,208,28,144,0,0,0,0
 2023-06-27 18:22:34.966,-187500.0224,-187500.0224,-187500.0224,-182801.4621,-187500.0224,-187500.0224,-187500.0224,-187500.0224,0.342,-0.07,0.914,192,0,0,0,0,0,0,0,0,0,0
 2023-06-27 18:22:34.966,-187500.0224,-187500.0224,-187500.0224,-182124.9643,-187500.0224,-187500.0224,-187500.0224,-187500.0224,0.342,-0.07,0.914,192,0,0,0,0,0,0,0,0,0,0
 2023-06-27 18:22:34.966,-187500.0224,-187500.0224,-187500.0224,-182251.0281,-187500.0224,-187500.0224,-187500.0224,-187500.0224,0.342,-0.07,0.914,192,0,0,0,0,0,0,0,0,0,0
 2023-06-27 18:22:34.966,-187500.0224,-187500.0224,-187500.0224,-183045.6773,-187500.0224,-187500.0224,-187500.0224,-187500.0224,0.342,-0.07,0.914,192,0,0,0,0,0,0,0,0,0,0
 2023-06-27 18:22:34.966,-187500.0224,-187500.0224,-187500.0224,-183361.798,-187500.0224,-187500.0224,-187500.0224,-187500.0224,0.342,-0.07,0.914,192,0,0,0,0,0,0,0,0,0,0
 2023-06-27 18:22:34.966,-187500.0224,-187500.0224,-187500.0224,-182821.6681,-187500.0224,-187500.0224,-187500.0224,-187500.0224,0.342,-0.07,0.914,192,0,0,0,0,0,0,0,0,0,0
 2023-06-27 18:22:34.966,-187500.0224,-187500.0224,-187500.0224,-182132.6756,-187500.0224,-187500.0224,-187500.0224,-187500.0224,0.342,-0.07,0.914,192,0,0,0,0,0,0,0,0,0,0
 2023-06-27 18:22:34.966,-187500.0224,-187500.0224,-187500.0224,-182243.3167,-187500.0224,-187500.0224,-187500.0224,-187500.0224,0.342,-0.07,0.914,192,0,0,0,0,0,0,0,0,0,0
 2023-06-27 18:22:34.966,-187500.0224,-187500.0224,-187500.0224,-183037.3625,-187500.0224,-187500.0224,-187500.0224,-187500.0224,0.342,-0.07,0.914,192,0,0,0,0,0,0,0,0,0,0
 2023-06-27 18:22:34.966,-187500.0224,-187500.0224,-187500.0224,-183366.3131,-187500.0224,-187500.0224,-187500.0224,-187500.0224,0.35,-0.062,0.916,192,10,240,254,16,28,160,0,0,0,0
 2023-06-27 18:22:34.966,-187500.0224,-187500.0224,-187500.0224,-182838.2084,-187500.0224,-187500.0224,-187500.0224,-187500.0224,0.35,-0.062,0.916,192,0,0,0,0,0,0,0,0,0,0
 2023-06-27 18:22:34.966,-187500.0224,-187500.0224,-187500.0224,-182142.4433,-187500.0224,-187500.0224,-187500.0224,-187500.0224,0.35,-0.062,0.916,192,0,0,0,0,0,0,0,0,0,0
 2023-06-27 18:22:34.966,-187500.0224,-187500.0224,-187500.0224,-182242.9144,-187500.0224,-187500.0224,-187500.0224,-187500.0224,0.35,-0.062,0.916,192,0,0,0,0,0,0,0,0,0,0
 2023-06-27 18:22:34.966,-187500.0224,-187500.0224,-187500.0224,-183034.8591,-187500.0224,-187500.0224,-187500.0224,-187500.0224,0.35,-0.062,0.916,192,0,0,0,0,0,0,0,0,0,0
 2023-06-27 18:22:34.966,-187500.0224,-187500.0224,-187500.0224,-183375.7679,-187500.0224,-187500.0224,-187500.0224,-187500.0224,0.35,-0.062,0.916,192,0,0,0,0,0,0,0,0,0,0
 2023-06-27 18:22:34.966,-187500.0224,-187500.0224,-187500.0224,-182857.878,-187500.0224,-187500.0224,-187500.0224,-187500.0224,0.35,-0.062,0.916,192,0,0,0,0,0,0,0,0,0,0
 2023-06-27 18:22:34.966,-187500.0224,-187500.0224,-187500.0224,-182155.0273,-187500.0224,-187500.0224,-187500.0224,-187500.0224,0.35,-0.062,0.916,192,0,0,0,0,0,0,0,0,0,0
 2023-06-27 18:22:34.966,-187500.0224,-187500.0224,-187500.0224,-182240.1651,-187500.0224,-187500.0224,-187500.0224,-187500.0224,0.35,-0.062,0.916,192,0,0,0,0,0,0,0,0,0,0
 2023-06-27 18:22:34.966,-187500.0224,-187500.0224,-187500.0224,-183029.4052,-187500.0224,-187500.0224,-187500.0224,-187500.0224,0.35,-0.062,0.916,192,0,0,0,0,0,0,0,0,0,0
 2023-06-27 18:22:34.966,-187500.0224,-187500.0224,-187500.0224,-183383.3675,-187500.0224,-187500.0224,-187500.0224,-187500.0224,0.35,-0.066,0.92,192,10,240,253,240,28,192,0,0,0,0
 2023-06-27 18:22:35.445,-187500.0224,-187500.0224,-187500.0224,-182878.7098,-187500.0224,-187500.0224,-187500.0224,-187500.0224,0.35,-0.066,0.92,192,0,0,0,0,0,0,0,0,0,0
 2023-06-27 18:22:35.445,-187500.0224,-187500.0224,-187500.0224,-182169.556,-187500.0224,-187500.0224,-187500.0224,-187500.0224,0.35,-0.066,0.92,192,0,0,0,0,0,0,0,0,0,0
 2023-06-27 18:22:35.445,-187500.0224,-187500.0224,-187500.0224,-182243.7191,-187500.0224,-187500.0224,-187500.0224,-187500.0224,0.35,-0.066,0.92,192,0,0,0,0,0,0,0,0,0,0
 2023-06-27 18:22:35.445,-187500.0224,-187500.0224,-187500.0224,-183029.07,-187500.0224,-187500.0224,-187500.0224,-187500.0224,0.35,-0.066,0.92,192,0,0,0,0,0,0,0,0,0,0
 2023-06-27 18:22:35.445,-187500.0224,-187500.0224,-187500.0224,-183391.347,-187500.0224,-187500.0224,-187500.0224,-187500.0224,0.35,-0.066,0.92,192,0,0,0,0,0,0,0,0,0,0
 2023-06-27 18:22:35.445,-187500.0224,-187500.0224,-187500.0224,-182894.6242,-187500.0224,-187500.0224,-187500.0224,-187500.0224,0.35,-0.066,0.92,192,0,0,0,0,0,0,0,0,0,0
 2023-06-27 18:22:35.445,-187500.0224,-187500.0224,-187500.0224,-182179.279,-187500.0224,-187500.0224,-187500.0224,-187500.0224,0.35,-0.066,0.92,192,0,0,0,0,0,0,0,0,0,0
 2023-06-27 18:22:35.445,-187500.0224,-187500.0224,-187500.0224,-182242.1321,-187500.0224,-187500.0224,-187500.0224,-187500.0224,0.35,-0.066,0.92,192,0,0,0,0,0,0,0,0,0,0
 2023-06-27 18:22:35.445,-187500.0224,-187500.0224,-187500.0224,-183026.3207,-187500.0224,-187500.0224,-187500.0224,-187500.0224,0.35,-0.066,0.92,192,0,0,0,0,0,0,0,0,0,0
 2023-06-27 18:22:35.445,-187500.0224,-187500.0224,-187500.0224,-183402.21,-187500.0224,-187500.0224,-187500.0224,-187500.0224,0.348,-0.072,0.928,192,10,224,253,192,29,0,0,0,0,0
 2023-06-27 18:22:35.445,-187500.0224,-187500.0224,-187500.0224,-182917.1995,-187500.0224,-187500.0224,-187500.0224,-187500.0224,0.348,-0.072,0.928,192,0,0,0,0,0,0,0,0,0,0
 2023-06-27 18:22:35.445,-187500.0224,-187500.0224,-187500.0224,-182194.1429,-187500.0224,-187500.0224,-187500.0224,-187500.0224,0.348,-0.072,0.928,192,0,0,0,0,0,0,0,0,0,0
 2023-06-27 18:22:35.445,-187500.0224,-187500.0224,-187500.0224,-182241.4839,-187500.0224,-187500.0224,-187500.0224,-187500.0224,0.348,-0.072,0.928,192,0,0,0,0,0,0,0,0,0,0
 2023-06-27 18:22:35.445,-187500.0224,-187500.0224,-187500.0224,-183018.6764,-187500.0224,-187500.0224,-187500.0224,-187500.0224,0.348,-0.072,0.928,192,0,0,0,0,0,0,0,0,0,0
 2023-06-27 18:22:35.445,-187500.0224,-187500.0224,-187500.0224,-183405.2051,-187500.0224,-187500.0224,-187500.0224,-187500.0224,0.348,-0.072,0.928,192,0,0,0,0,0,0,0,0,0,0
 2023-06-27 18:22:35.445,-187500.0224,-187500.0224,-187500.0224,-182933.3151,-187500.0224,-187500.0224,-187500.0224,-187500.0224,0.348,-0.072,0.928,192,0,0,0,0,0,0,0,0,0,0
 2023-06-27 18:22:35.445,-187500.0224,-187500.0224,-187500.0224,-182202.0331,-187500.0224,-187500.0224,-187500.0224,-187500.0224,0.348,-0.072,0.928,192,0,0,0,0,0,0,0,0,0,0
 2023-06-27 18:22:35.445,-187500.0224,-187500.0224,-187500.0224,-182238.3323,-187500.0224,-187500.0224,-187500.0224,-187500.0224,0.348,-0.072,0.928,192,0,0,0,0,0,0,0,0,0,0
 2023-06-27 18:22:35.445,-187500.0224,-187500.0224,-187500.0224,-183013.1779,-187500.0224,-187500.0224,-187500.0224,-187500.0224,0.348,-0.072,0.928,192,0,0,0,0,0,0,0,0,0,0
 2023-06-27 18:22:35.445,-187500.0224,-187500.0224,-187500.0224,-183413.7658,-187500.0224,-187500.0224,-187500.0224,-187500.0224,0.352,-0.072,0.93,192,11,0,253,192,29,16,0,0,0,0
 2023-06-27 18:22:35.445,-187500.0224,-187500.0224,-187500.0224,-182953.9905,-187500.0224,-187500.0224,-187500.0224,-187500.0224,0.352,-0.072,0.93,192,0,0,0,0,0,0,0,0,0,0
 2023-06-27 18:22:35.445,-187500.0224,-187500.0224,-187500.0224,-182214.9971,-187500.0224,-187500.0224,-187500.0224,-187500.0224,0.352,-0.072,0.93,192,0,0,0,0,0,0,0,0,0,0
 2023-06-27 18:22:35.445,-187500.0224,-187500.0224,-187500.0224,-182238.8911,-187500.0224,-187500.0224,-187500.0224,-187500.0224,0.352,-0.072,0.93,192,0,0,0,0,0,0,0,0,0,0
 2023-06-27 18:22:35.445,-187500.0224,-187500.0224,-187500.0224,-183012.2167,-187500.0224,-187500.0224,-187500.0224,-187500.0224,0.352,-0.072,0.93,192,0,0,0,0,0,0,0,0,0,0
 2023-06-27 18:22:35.445,-187500.0224,-187500.0224,-187500.0224,-183421.6337,-187500.0224,-187500.0224,-187500.0224,-187500.0224,0.352,-0.072,0.93,192,0,0,0,0,0,0,0,0,0,0
 2023-06-27 18:22:35.445,-187500.0224,-187500.0224,-187500.0224,-182973.1012,-187500.0224,-187500.0224,-187500.0224,-187500.0224,0.352,-0.072,0.93,192,0,0,0,0,0,0,0,0,0,0
 2023-06-27 18:22:35.445,-187500.0224,-187500.0224,-187500.0224,-182231.0009,-187500.0224,-187500.0224,-187500.0224,-187500.0224,0.352,-0.072,0.93,192,0,0,0,0,0,0,0,0,0,0
 2023-06-27 18:22:35.445,-187500.0224,-187500.0224,-187500.0224,-182240.5228,-187500.0224,-187500.0224,-187500.0224,-187500.0224,0.352,-0.072,0.93,192,0,0,0,0,0,0,0,0,0,0
 2023-06-27 18:22:35.445,-187500.0224,-187500.0224,-187500.0224,-183008.1711,-187500.0224,-187500.0224,-187500.0224,-187500.0224,0.352,-0.072,0.93,192,0,0,0,0,0,0,0,0,0,0
 2023-06-27 18:22:35.445,-187500.0224,-187500.0224,-187500.0224,-183428.1157,-187500.0224,-187500.0224,-187500.0224,-187500.0224,0.348,-0.07,0.926,192,10,224,253,208,28,240,0,0,0,0
 2023-06-27 18:22:35.445,-187500.0224,-187500.0224,-187500.0224,-182995.4529,-187500.0224,-187500.0224,-187500.0224,-187500.0224,0.348,-0.07,0.926,192,0,0,0,0,0,0,0,0,0,0
 2023-06-27 18:22:35.445,-187500.0224,-187500.0224,-187500.0224,-182248.6141,-187500.0224,-187500.0224,-187500.0224,-187500.0224,0.348,-0.07,0.926,192,0,0,0,0,0,0,0,0,0,0
 2023-06-27 18:22:35.445,-187500.0224,-187500.0224,-187500.0224,-182242.0874,-187500.0224,-187500.0224,-187500.0224,-187500.0224,0.348,-0.07,0.926,192,0,0,0,0,0,0,0,0,0,0
 2023-06-27 18:22:35.445,-187500.0224,-187500.0224,-187500.0224,-183001.3091,-187500.0224,-187500.0224,-187500.0224,-187500.0224,0.348,-0.07,0.926,192,0,0,0,0,0,0,0,0,0,0
 2023-06-27 18:22:35.445,-187500.0224,-187500.0224,-187500.0224,-183434.7094,-187500.0224,-187500.0224,-187500.0224,-187500.0224,0.348,-0.07,0.926,192,0,0,0,0,0,0,0,0,0,0
 2023-06-27 18:22:35.445,-187500.0224,-187500.0224,-187500.0224,-183008.9534,-187500.0224,-187500.0224,-187500.0224,-187500.0224,0.348,-0.07,0.926,192,0,0,0,0,0,0,0,0,0,0
 2023-06-27 18:22:35.445,-187500.0224,-187500.0224,-187500.0224,-182255.8337,-187500.0224,-187500.0224,-187500.0224,-187500.0224,0.348,-0.07,0.926,192,0,0,0,0,0,0,0,0,0,0
 2023-06-27 18:22:35.445,-187500.0224,-187500.0224,-187500.0224,-182240.0981,-187500.0224,-187500.0224,-187500.0224,-187500.0224,0.348,-0.07,0.926,192,0,0,0,0,0,0,0,0,0,0
 2023-06-27 18:22:35.445,-187500.0224,-187500.0224,-187500.0224,-182995.3412,-187500.0224,-187500.0224,-187500.0224,-187500.0224,0.348,-0.07,0.926,192,0,0,0,0,0,0,0,0,0,0
 2023-06-27 18:22:35.445,-187500.0224,-187500.0224,-187500.0224,-183440.1632,-187500.0224,-187500.0224,-187500.0224,-187500.0224,0.344,-0.066,0.928,192,10,192,253,240,29,0,0,0,0,0
 2023-06-27 18:22:35.445,-187500.0224,-187500.0224,-187500.0224,-183028.1088,-187500.0224,-187500.0224,-187500.0224,-187500.0224,0.344,-0.066,0.928,192,0,0,0,0,0,0,0,0,0,0
 2023-06-27 18:22:35.445,-187500.0224,-187500.0224,-187500.0224,-182269.1777,-187500.0224,-187500.0224,-187500.0224,-187500.0224,0.344,-0.066,0.928,192,0,0,0,0,0,0,0,0,0,0
 2023-06-27 18:22:35.445,-187500.0224,-187500.0224,-187500.0224,-182237.6617,-187500.0224,-187500.0224,-187500.0224,-187500.0224,0.344,-0.066,0.928,192,0,0,0,0,0,0,0,0,0,0
 2023-06-27 18:22:35.445,-187500.0224,-187500.0224,-187500.0224,-182990.9155,-187500.0224,-187500.0224,-187500.0224,-187500.0224,0.344,-0.066,0.928,192,0,0,0,0,0,0,0,0,0,0
 2023-06-27 18:22:35.445,-187500.0224,-187500.0224,-187500.0224,-183445.6394,-187500.0224,-187500.0224,-187500.0224,-187500.0224,0.344,-0.066,0.928,192,0,0,0,0,0,0,0,0,0,0
 2023-06-27 18:22:35.445,-187500.0224,-187500.0224,-187500.0224,-183045.6997,-187500.0224,-187500.0224,-187500.0224,-187500.0224,0.344,-0.066,0.928,192,0,0,0,0,0,0,0,0,0,0
 2023-06-27 18:22:35.445,-187500.0224,-187500.0224,-187500.0224,-182285.718,-187500.0224,-187500.0224,-187500.0224,-187500.0224,0.344,-0.066,0.928,192,0,0,0,0,0,0,0,0,0,0
 2023-06-27 18:22:35.445,-187500.0224,-187500.0224,-187500.0224,-182243.9649,-187500.0224,-187500.0224,-187500.0224,-187500.0224,0.344,-0.066,0.928,192,0,0,0,0,0,0,0,0,0,0
 2023-06-27 18:22:35.445,-187500.0224,-187500.0224,-187500.0224,-182988.8815,-187500.0224,-187500.0224,-187500.0224,-187500.0224,0.344,-0.066,0.928,192,0,0,0,0,0,0,0,0,0,0
 2023-06-27 18:22:35.445,-187500.0224,-187500.0224,-187500.0224,-183454.1778,-187500.0224,-187500.0224,-187500.0224,-187500.0224,0.342,-0.064,0.928,192,10,176,254,0,29,0,0,0,0,0
 2023-06-27 18:22:35.445,-187500.0224,-187500.0224,-187500.0224,-183066.2633,-187500.0224,-187500.0224,-187500.0224,-187500.0224,0.342,-0.064,0.928,192,0,0,0,0,0,0,0,0,0,0
 2023-06-27 18:22:35.445,-187500.0224,-187500.0224,-187500.0224,-182302.4371,-187500.0224,-187500.0224,-187500.0224,-187500.0224,0.342,-0.064,0.928,192,0,0,0,0,0,0,0,0,0,0
 2023-06-27 18:22:35.445,-187500.0224,-187500.0224,-187500.0224,-182247.6977,-187500.0224,-187500.0224,-187500.0224,-187500.0224,0.342,-0.064,0.928,192,0,0,0,0,0,0,0,0,0,0
 2023-06-27 18:22:35.445,-187500.0224,-187500.0224,-187500.0224,-182984.0983,-187500.0224,-187500.0224,-187500.0224,-187500.0224,0.342,-0.064,0.928,192,0,0,0,0,0,0,0,0,0,0
 2023-06-27 18:22:35.445,-187500.0224,-187500.0224,-187500.0224,-183458.9164,-187500.0224,-187500.0224,-187500.0224,-187500.0224,0.342,-0.064,0.928,192,0,0,0,0,0,0,0,0,0,0
 2023-06-27 18:22:35.445,-187500.0224,-187500.0224,-187500.0224,-183081.6636,-187500.0224,-187500.0224,-187500.0224,-187500.0224,0.342,-0.064,0.928,192,0,0,0,0,0,0,0,0,0,0
 2023-06-27 18:22:35.445,-187500.0224,-187500.0224,-187500.0224,-182314.0153,-187500.0224,-187500.0224,-187500.0224,-187500.0224,0.342,-0.064,0.928,192,0,0,0,0,0,0,0,0,0,0
 2023-06-27 18:22:35.445,-187500.0224,-187500.0224,-187500.0224,-182247.5636,-187500.0224,-187500.0224,-187500.0224,-187500.0224,0.342,-0.064,0.928,192,0,0,0,0,0,0,0,0,0,0
 2023-06-27 18:22:35.445,-187500.0224,-187500.0224,-187500.0224,-182976.521,-187500.0224,-187500.0224,-187500.0224,-187500.0224,0.342,-0.064,0.928,192,0,0,0,0,0,0,0,0,0,0
 2023-06-27 18:22:35.445,-187500.0224,-187500.0224,-187500.0224,-183460.6821,-187500.0224,-187500.0224,-187500.0224,-187500.0224,0.34,-0.064,0.924,192,10,160,254,0,28,224,0,0,0,0
 2023-06-27 18:22:35.445,-187500.0224,-187500.0224,-187500.0224,-183096.3711,-187500.0224,-187500.0224,-187500.0224,-187500.0224,0.34,-0.064,0.924,192,0,0,0,0,0,0,0,0,0,0
 2023-06-27 18:22:35.445,-187500.0224,-187500.0224,-187500.0224,-182325.7053,-187500.0224,-187500.0224,-187500.0224,-187500.0224,0.34,-0.064,0.924,192,0,0,0,0,0,0,0,0,0,0
 2023-06-27 18:22:35.445,-187500.0224,-187500.0224,-187500.0224,-182246.826,-187500.0224,-187500.0224,-187500.0224,-187500.0224,0.34,-0.064,0.924,192,0,0,0,0,0,0,0,0,0,0
 2023-06-27 18:22:35.446,-187500.0224,-187500.0224,-187500.0224,-182971.1789,-187500.0224,-187500.0224,-187500.0224,-187500.0224,0.34,-0.064,0.924,192,0,0,0,0,0,0,0,0,0,0
 2023-06-27 18:22:35.446,-187500.0224,-187500.0224,-187500.0224,-183467.8571,-187500.0224,-187500.0224,-187500.0224,-187500.0224,0.34,-0.064,0.924,192,0,0,0,0,0,0,0,0,0,0
 2023-06-27 18:22:35.446,-187500.0224,-187500.0224,-187500.0224,-183119.2369,-187500.0224,-187500.0224,-187500.0224,-187500.0224,0.34,-0.064,0.924,192,0,0,0,0,0,0,0,0,0,0
 2023-06-27 18:22:35.446,-187500.0224,-187500.0224,-187500.0224,-182343.3408,-187500.0224,-187500.0224,-187500.0224,-187500.0224,0.34,-0.064,0.924,192,0,0,0,0,0,0,0,0,0,0
 2023-06-27 18:22:35.446,-187500.0224,-187500.0224,-187500.0224,-182246.8707,-187500.0224,-187500.0224,-187500.0224,-187500.0224,0.34,-0.064,0.924,192,0,0,0,0,0,0,0,0,0,0
 2023-06-27 18:22:35.446,-187500.0224,-187500.0224,-187500.0224,-182964.2276,-187500.0224,-187500.0224,-187500.0224,-187500.0224,0.34,-0.064,0.924,192,0,0,0,0,0,0,0,0,0,0
 2023-06-27 18:22:35.446,-187500.0224,-187500.0224,-187500.0224,-183468.5947,-187500.0224,-187500.0224,-187500.0224,-187500.0224,0.346,-0.066,0.924,192,10,208,253,240,28,224,0,0,0,0
 2023-06-27 18:22:35.446,-187500.0224,-187500.0224,-187500.0224,-183128.2894,-187500.0224,-187500.0224,-187500.0224,-187500.0224,0.346,-0.066,0.924,192,0,0,0,0,0,0,0,0,0,0
 2023-06-27 18:22:35.446,-187500.0224,-187500.0224,-187500.0224,-182352.3709,-187500.0224,-187500.0224,-187500.0224,-187500.0224,0.346,-0.066,0.924,192,0,0,0,0,0,0,0,0,0,0
 2023-06-27 18:22:35.446,-187500.0224,-187500.0224,-187500.0224,-182246.5577,-187500.0224,-187500.0224,-187500.0224,-187500.0224,0.346,-0.066,0.924,192,0,0,0,0,0,0,0,0,0,0
 2023-06-27 18:22:35.446,-187500.0224,-187500.0224,-187500.0224,-182954.5269,-187500.0224,-187500.0224,-187500.0224,-187500.0224,0.346,-0.066,0.924,192,0,0,0,0,0,0,0,0,0,0
 2023-06-27 18:22:35.446,-187500.0224,-187500.0224,-187500.0224,-183471.6122,-187500.0224,-187500.0224,-187500.0224,-187500.0224,0.346,-0.066,0.924,192,0,0,0,0,0,0,0,0,0,0
 2023-06-27 18:22:35.446,-187500.0224,-187500.0224,-187500.0224,-183145.2767,-187500.0224,-187500.0224,-187500.0224,-187500.0224,0.346,-0.066,0.924,192,0,0,0,0,0,0,0,0,0,0
 2023-06-27 18:22:35.446,-187500.0224,-187500.0224,-187500.0224,-182365.4467,-187500.0224,-187500.0224,-187500.0224,-187500.0224,0.346,-0.066,0.924,192,0,0,0,0,0,0,0,0,0,0
 2023-06-27 18:22:35.446,-187500.0224,-187500.0224,-187500.0224,-182246.2895,-187500.0224,-187500.0224,-187500.0224,-187500.0224,0.346,-0.066,0.924,192,0,0,0,0,0,0,0,0,0,0
 2023-06-27 18:22:35.446,-187500.0224,-187500.0224,-187500.0224,-182949.5201,-187500.0224,-187500.0224,-187500.0224,-187500.0224,0.346,-0.066,0.924,192,0,0,0,0,0,0,0,0,0,0
 2023-06-27 18:22:35.446,-187500.0224,-187500.0224,-187500.0224,-183476.6636,-187500.0224,-187500.0224,-187500.0224,-187500.0224,0.344,-0.066,0.922,192,10,192,253,240,28,208,0,0,0,0
 2023-06-27 18:22:35.446,-187500.0224,-187500.0224,-187500.0224,-183161.2805,-187500.0224,-187500.0224,-187500.0224,-187500.0224,0.344,-0.066,0.922,192,0,0,0,0,0,0,0,0,0,0
 2023-06-27 18:22:35.446,-187500.0224,-187500.0224,-187500.0224,-182378.366,-187500.0224,-187500.0224,-187500.0224,-187500.0224,0.344,-0.066,0.922,192,0,0,0,0,0,0,0,0,0,0
 2023-06-27 18:22:35.446,-187500.0224,-187500.0224,-187500.0224,-182248.1671,-187500.0224,-187500.0224,-187500.0224,-187500.0224,0.344,-0.066,0.922,192,0,0,0,0,0,0,0,0,0,0
 2023-06-27 18:22:35.446,-187500.0224,-187500.0224,-187500.0224,-182943.7087,-187500.0224,-187500.0224,-187500.0224,-187500.0224,0.344,-0.066,0.922,192,0,0,0,0,0,0,0,0,0,0
 2023-06-27 18:22:35.446,-187500.0224,-187500.0224,-187500.0224,-183480.5081,-187500.0224,-187500.0224,-187500.0224,-187500.0224,0.344,-0.066,0.922,192,0,0,0,0,0,0,0,0,0,0
 2023-06-27 18:22:35.446,-187500.0224,-187500.0224,-187500.0224,-183179.0278,-187500.0224,-187500.0224,-187500.0224,-187500.0224,0.344,-0.066,0.922,192,0,0,0,0,0,0,0,0,0,0
 2023-06-27 18:22:35.446,-187500.0224,-187500.0224,-187500.0224,-182395.7333,-187500.0224,-187500.0224,-187500.0224,-187500.0224,0.344,-0.066,0.922,192,0,0,0,0,0,0,0,0,0,0
 2023-06-27 18:22:35.446,-187500.0224,-187500.0224,-187500.0224,-182252.8162,-187500.0224,-187500.0224,-187500.0224,-187500.0224,0.344,-0.066,0.922,192,0,0,0,0,0,0,0,0,0,0
 2023-06-27 18:22:35.446,-187500.0224,-187500.0224,-187500.0224,-182936.802,-187500.0224,-187500.0224,-187500.0224,-187500.0224,0.344,-0.066,0.922,192,0,0,0,0,0,0,0,0,0,0
 2023-06-27 18:22:35.446,-187500.0224,-187500.0224,-187500.0224,-183478.5188,-187500.0224,-187500.0224,-187500.0224,-187500.0224,0.344,-0.066,0.922,192,0,0,0,0,0,0,0,0,0,0
 2023-06-27 18:22:35.446,-187500.0224,-187500.0224,-187500.0224,-183187.5438,-187500.0224,-187500.0224,-187500.0224,-187500.0224,0.342,-0.066,0.922,192,10,176,253,240,28,208,0,0,0,0
 2023-06-27 18:22:35.446,-187500.0224,-187500.0224,-187500.0224,-182404.3834,-187500.0224,-187500.0224,-187500.0224,-187500.0224,0.342,-0.066,0.922,192,0,0,0,0,0,0,0,0,0,0
 2023-06-27 18:22:35.446,-187500.0224,-187500.0224,-187500.0224,-182252.168,-187500.0224,-187500.0224,-187500.0224,-187500.0224,0.342,-0.066,0.922,192,0,0,0,0,0,0,0,0,0,0
 2023-06-27 18:22:35.446,-187500.0224,-187500.0224,-187500.0224,-182931.3258,-187500.0224,-187500.0224,-187500.0224,-187500.0224,0.342,-0.066,0.922,192,0,0,0,0,0,0,0,0,0,0
 2023-06-27 18:22:35.446,-187500.0224,-187500.0224,-187500.0224,-183485.4255,-187500.0224,-187500.0224,-187500.0224,-187500.0224,0.342,-0.066,0.922,192,0,0,0,0,0,0,0,0,0,0
 2023-06-27 18:22:35.446,-187500.0224,-187500.0224,-187500.0224,-183209.3368,-187500.0224,-187500.0224,-187500.0224,-187500.0224,0.342,-0.066,0.922,192,0,0,0,0,0,0,0,0,0,0
 2023-06-27 18:22:35.446,-187500.0224,-187500.0224,-187500.0224,-182424.2318,-187500.0224,-187500.0224,-187500.0224,-187500.0224,0.342,-0.066,0.922,192,0,0,0,0,0,0,0,0,0,0
 2023-06-27 18:22:35.446,-187500.0224,-187500.0224,-187500.0224,-182254.4703,-187500.0224,-187500.0224,-187500.0224,-187500.0224,0.342,-0.066,0.922,192,0,0,0,0,0,0,0,0,0,0
 2023-06-27 18:22:35.446,-187500.0224,-187500.0224,-187500.0224,-182923.7262,-187500.0224,-187500.0224,-187500.0224,-187500.0224,0.342,-0.066,0.922,192,0,0,0,0,0,0,0,0,0,0
 2023-06-27 18:22:35.446,-187500.0224,-187500.0224,-187500.0224,-183488.5101,-187500.0224,-187500.0224,-187500.0224,-187500.0224,0.342,-0.066,0.922,192,0,0,0,0,0,0,0,0,0,0
 2023-06-27 18:22:35.446,-187500.0224,-187500.0224,-187500.0224,-183225.0501,-187500.0224,-187500.0224,-187500.0224,-187500.0224,0.344,-0.068,0.924,192,10,192,253,224,28,224,0,0,0,0
 2023-06-27 18:22:35.446,-187500.0224,-187500.0224,-187500.0224,-182436.5476,-187500.0224,-187500.0224,-187500.0224,-187500.0224,0.344,-0.068,0.924,192,0,0,0,0,0,0,0,0,0,0
 2023-06-27 18:22:35.446,-187500.0224,-187500.0224,-187500.0224,-182256.169,-187500.0224,-187500.0224,-187500.0224,-187500.0224,0.344,-0.068,0.924,192,0,0,0,0,0,0,0,0,0,0
 2023-06-27 18:22:35.446,-187500.0224,-187500.0224,-187500.0224,-182915.4784,-187500.0224,-187500.0224,-187500.0224,-187500.0224,0.344,-0.068,0.924,192,0,0,0,0,0,0,0,0,0,0
 2023-06-27 18:22:35.446,-187500.0224,-187500.0224,-187500.0224,-183489.2253,-187500.0224,-187500.0224,-187500.0224,-187500.0224,0.344,-0.068,0.924,192,0,0,0,0,0,0,0,0,0,0
 2023-06-27 18:22:35.446,-187500.0224,-187500.0224,-187500.0224,-183236.7177,-187500.0224,-187500.0224,-187500.0224,-187500.0224,0.344,-0.068,0.924,192,0,0,0,0,0,0,0,0,0,0
 2023-06-27 18:22:35.446,-187500.0224,-187500.0224,-187500.0224,-182448.8187,-187500.0224,-187500.0224,-187500.0224,-187500.0224,0.344,-0.068,0.924,192,0,0,0,0,0,0,0,0,0,0
 2023-06-27 18:22:35.446,-187500.0224,-187500.0224,-187500.0224,-182257.9571,-187500.0224,-187500.0224,-187500.0224,-187500.0224,0.344,-0.068,0.924,192,0,0,0,0,0,0,0,0,0,0
 2023-06-27 18:22:35.446,-187500.0224,-187500.0224,-187500.0224,-182909.7787,-187500.0224,-187500.0224,-187500.0224,-187500.0224,0.344,-0.068,0.924,192,0,0,0,0,0,0,0,0,0,0
 2023-06-27 18:22:35.446,-187500.0224,-187500.0224,-187500.0224,-183492.1758,-187500.0224,-187500.0224,-187500.0224,-187500.0224,0.344,-0.068,0.924,192,0,0,0,0,0,0,0,0,0,0
 2023-06-27 18:22:35.446,-187500.0224,-187500.0224,-187500.0224,-183252.3192,-187500.0224,-187500.0224,-187500.0224,-187500.0224,0.344,-0.072,0.932,192,10,192,253,192,29,32,0,0,0,0
 2023-06-27 18:22:35.446,-187500.0224,-187500.0224,-187500.0224,-182463.4814,-187500.0224,-187500.0224,-187500.0224,-187500.0224,0.344,-0.072,0.932,192,0,0,0,0,0,0,0,0,0,0
 2023-06-27 18:22:35.446,-187500.0224,-187500.0224,-187500.0224,-182260.9076,-187500.0224,-187500.0224,-187500.0224,-187500.0224,0.344,-0.072,0.932,192,0,0,0,0,0,0,0,0,0,0
 2023-06-27 18:22:35.446,-187500.0224,-187500.0224,-187500.0224,-182905.9119,-187500.0224,-187500.0224,-187500.0224,-187500.0224,0.344,-0.072,0.932,192,0,0,0,0,0,0,0,0,0,0
 2023-06-27 18:22:35.446,-187500.0224,-187500.0224,-187500.0224,-183498.7248,-187500.0224,-187500.0224,-187500.0224,-187500.0224,0.344,-0.072,0.932,192,0,0,0,0,0,0,0,0,0,0
 2023-06-27 18:22:35.446,-187500.0224,-187500.0224,-187500.0224,-183270.9158,-187500.0224,-187500.0224,-187500.0224,-187500.0224,0.344,-0.072,0.932,192,0,0,0,0,0,0,0,0,0,0
 2023-06-27 18:22:35.446,-187500.0224,-187500.0224,-187500.0224,-182480.4464,-187500.0224,-187500.0224,-187500.0224,-187500.0224,0.344,-0.072,0.932,192,0,0,0,0,0,0,0,0,0,0
 2023-06-27 18:22:35.446,-187500.0224,-187500.0224,-187500.0224,-182262.8745,-187500.0224,-187500.0224,-187500.0224,-187500.0224,0.344,-0.072,0.932,192,0,0,0,0,0,0,0,0,0,0
 2023-06-27 18:22:35.446,-187500.0224,-187500.0224,-187500.0224,-182895.183,-187500.0224,-187500.0224,-187500.0224,-187500.0224,0.344,-0.072,0.932,192,0,0,0,0,0,0,0,0,0,0
 2023-06-27 18:22:35.446,-187500.0224,-187500.0224,-187500.0224,-183494.7462,-187500.0224,-187500.0224,-187500.0224,-187500.0224,0.344,-0.072,0.932,192,0,0,0,0,0,0,0,0,0,0
 2023-06-27 18:22:35.446,-187500.0224,-187500.0224,-187500.0224,-183280.1024,-187500.0224,-187500.0224,-187500.0224,-187500.0224,0.346,-0.068,0.928,192,10,208,253,224,29,0,0,0,0,0
 2023-06-27 18:22:35.926,-187500.0224,-187500.0224,-187500.0224,-182492.8293,-187500.0224,-187500.0224,-187500.0224,-187500.0224,0.346,-0.068,0.928,192,0,0,0,0,0,0,0,0,0,0
 2023-06-27 18:22:35.926,-187500.0224,-187500.0224,-187500.0224,-182264.9979,-187500.0224,-187500.0224,-187500.0224,-187500.0224,0.346,-0.068,0.928,192,0,0,0,0,0,0,0,0,0,0
 2023-06-27 18:22:35.926,-187500.0224,-187500.0224,-187500.0224,-182888.5445,-187500.0224,-187500.0224,-187500.0224,-187500.0224,0.346,-0.068,0.928,192,0,0,0,0,0,0,0,0,0,0
 2023-06-27 18:22:35.926,-187500.0224,-187500.0224,-187500.0224,-183496.8026,-187500.0224,-187500.0224,-187500.0224,-187500.0224,0.346,-0.068,0.928,192,0,0,0,0,0,0,0,0,0,0
 2023-06-27 18:22:35.926,-187500.0224,-187500.0224,-187500.0224,-183295.8827,-187500.0224,-187500.0224,-187500.0224,-187500.0224,0.346,-0.068,0.928,192,0,0,0,0,0,0,0,0,0,0
 2023-06-27 18:22:35.926,-187500.0224,-187500.0224,-187500.0224,-182508.9002,-187500.0224,-187500.0224,-187500.0224,-187500.0224,0.346,-0.068,0.928,192,0,0,0,0,0,0,0,0,0,0
 2023-06-27 18:22:35.926,-187500.0224,-187500.0224,-187500.0224,-182267.1884,-187500.0224,-187500.0224,-187500.0224,-187500.0224,0.346,-0.068,0.928,192,0,0,0,0,0,0,0,0,0,0
 2023-06-27 18:22:35.926,-187500.0224,-187500.0224,-187500.0224,-182880.7214,-187500.0224,-187500.0224,-187500.0224,-187500.0224,0.346,-0.068,0.928,192,0,0,0,0,0,0,0,0,0,0
 2023-06-27 18:22:35.926,-187500.0224,-187500.0224,-187500.0224,-183499.2613,-187500.0224,-187500.0224,-187500.0224,-187500.0224,0.346,-0.068,0.928,192,0,0,0,0,0,0,0,0,0,0
 2023-06-27 18:22:35.926,-187500.0224,-187500.0224,-187500.0224,-183311.6184,-187500.0224,-187500.0224,-187500.0224,-187500.0224,0.346,-0.072,0.922,192,10,208,253,192,28,208,0,0,0,0
 2023-06-27 18:22:35.926,-187500.0224,-187500.0224,-187500.0224,-182526.5133,-187500.0224,-187500.0224,-187500.0224,-187500.0224,0.346,-0.072,0.922,192,0,0,0,0,0,0,0,0,0,0
 2023-06-27 18:22:35.926,-187500.0224,-187500.0224,-187500.0224,-182273.7151,-187500.0224,-187500.0224,-187500.0224,-187500.0224,0.346,-0.072,0.922,192,0,0,0,0,0,0,0,0,0,0
 2023-06-27 18:22:35.926,-187500.0224,-187500.0224,-187500.0224,-182882.7331,-187500.0224,-187500.0224,-187500.0224,-187500.0224,0.346,-0.072,0.922,192,0,0,0,0,0,0,0,0,0,0
 2023-06-27 18:22:35.926,-187500.0224,-187500.0224,-187500.0224,-183506.4585,-187500.0224,-187500.0224,-187500.0224,-187500.0224,0.346,-0.072,0.922,192,0,0,0,0,0,0,0,0,0,0
 2023-06-27 18:22:35.926,-187500.0224,-187500.0224,-187500.0224,-183327.4881,-187500.0224,-187500.0224,-187500.0224,-187500.0224,0.346,-0.072,0.922,192,0,0,0,0,0,0,0,0,0,0
 2023-06-27 18:22:35.926,-187500.0224,-187500.0224,-187500.0224,-182544.0818,-187500.0224,-187500.0224,-187500.0224,-187500.0224,0.346,-0.072,0.922,192,0,0,0,0,0,0,0,0,0,0
 2023-06-27 18:22:35.926,-187500.0224,-187500.0224,-187500.0224,-182279.9512,-187500.0224,-187500.0224,-187500.0224,-187500.0224,0.346,-0.072,0.922,192,0,0,0,0,0,0,0,0,0,0
 2023-06-27 18:22:35.926,-187500.0224,-187500.0224,-187500.0224,-182872.563,-187500.0224,-187500.0224,-187500.0224,-187500.0224,0.346,-0.072,0.922,192,0,0,0,0,0,0,0,0,0,0
 2023-06-27 18:22:35.926,-187500.0224,-187500.0224,-187500.0224,-183506.995,-187500.0224,-187500.0224,-187500.0224,-187500.0224,0.346,-0.072,0.922,192,0,0,0,0,0,0,0,0,0,0
 2023-06-27 18:22:35.926,-187500.0224,-187500.0224,-187500.0224,-183343.3578,-187500.0224,-187500.0224,-187500.0224,-187500.0224,0.344,-0.07,0.926,192,10,192,253,208,28,240,0,0,0,0
 2023-06-27 18:22:35.926,-187500.0224,-187500.0224,-187500.0224,-182561.9409,-187500.0224,-187500.0224,-187500.0224,-187500.0224,0.344,-0.07,0.926,192,0,0,0,0,0,0,0,0,0,0
 2023-06-27 18:22:35.926,-187500.0224,-187500.0224,-187500.0224,-182287.0144,-187500.0224,-187500.0224,-187500.0224,-187500.0224,0.344,-0.07,0.926,192,0,0,0,0,0,0,0,0,0,0
 2023-06-27 18:22:35.926,-187500.0224,-187500.0224,-187500.0224,-182870.015,-187500.0224,-187500.0224,-187500.0224,-187500.0224,0.344,-0.07,0.926,192,0,0,0,0,0,0,0,0,0,0
 2023-06-27 18:22:35.926,-187500.0224,-187500.0224,-187500.0224,-183510.683,-187500.0224,-187500.0224,-187500.0224,-187500.0224,0.344,-0.07,0.926,192,0,0,0,0,0,0,0,0,0,0
 2023-06-27 18:22:35.926,-187500.0224,-187500.0224,-187500.0224,-183357.8865,-187500.0224,-187500.0224,-187500.0224,-187500.0224,0.344,-0.07,0.926,192,0,0,0,0,0,0,0,0,0,0
 2023-06-27 18:22:35.926,-187500.0224,-187500.0224,-187500.0224,-182577.8106,-187500.0224,-187500.0224,-187500.0224,-187500.0224,0.344,-0.07,0.926,192,0,0,0,0,0,0,0,0,0,0
 2023-06-27 18:22:35.926,-187500.0224,-187500.0224,-187500.0224,-182290.9036,-187500.0224,-187500.0224,-187500.0224,-187500.0224,0.344,-0.07,0.926,192,0,0,0,0,0,0,0,0,0,0
 2023-06-27 18:22:35.926,-187500.0224,-187500.0224,-187500.0224,-182866.0587,-187500.0224,-187500.0224,-187500.0224,-187500.0224,0.344,-0.07,0.926,192,0,0,0,0,0,0,0,0,0,0
 2023-06-27 18:22:35.926,-187500.0224,-187500.0224,-187500.0224,-183515.4663,-187500.0224,-187500.0224,-187500.0224,-187500.0224,0.344,-0.07,0.926,192,0,0,0,0,0,0,0,0,0,0
 2023-06-27 18:22:35.926,-187500.0224,-187500.0224,-187500.0224,-183373.5103,-187500.0224,-187500.0224,-187500.0224,-187500.0224,0.34,-0.07,0.924,192,10,160,253,208,28,224,0,0,0,0
 2023-06-27 18:22:35.926,-187500.0224,-187500.0224,-187500.0224,-182595.4014,-187500.0224,-187500.0224,-187500.0224,-187500.0224,0.34,-0.07,0.924,192,0,0,0,0,0,0,0,0,0,0
 2023-06-27 18:22:35.926,-187500.0224,-187500.0224,-187500.0224,-182296.6033,-187500.0224,-187500.0224,-187500.0224,-187500.0224,0.34,-0.07,0.924,192,0,0,0,0,0,0,0,0,0,0
 2023-06-27 18:22:35.926,-187500.0224,-187500.0224,-187500.0224,-182861.4319,-187500.0224,-187500.0224,-187500.0224,-187500.0224,0.34,-0.07,0.924,192,0,0,0,0,0,0,0,0,0,0
 2023-06-27 18:22:35.926,-187500.0224,-187500.0224,-187500.0224,-183517.5673,-187500.0224,-187500.0224,-187500.0224,-187500.0224,0.34,-0.07,0.924,192,0,0,0,0,0,0,0,0,0,0
 2023-06-27 18:22:35.926,-187500.0224,-187500.0224,-187500.0224,-183387.9049,-187500.0224,-187500.0224,-187500.0224,-187500.0224,0.34,-0.07,0.924,192,0,0,0,0,0,0,0,0,0,0
 2023-06-27 18:22:35.926,-187500.0224,-187500.0224,-187500.0224,-182612.4111,-187500.0224,-187500.0224,-187500.0224,-187500.0224,0.34,-0.07,0.924,192,0,0,0,0,0,0,0,0,0,0
 2023-06-27 18:22:35.926,-187500.0224,-187500.0224,-187500.0224,-182302.8394,-187500.0224,-187500.0224,-187500.0224,-187500.0224,0.34,-0.07,0.924,192,0,0,0,0,0,0,0,0,0,0
 2023-06-27 18:22:35.926,-187500.0224,-187500.0224,-187500.0224,-182856.5816,-187500.0224,-187500.0224,-187500.0224,-187500.0224,0.34,-0.07,0.924,192,0,0,0,0,0,0,0,0,0,0
 2023-06-27 18:22:35.926,-187500.0224,-187500.0224,-187500.0224,-183522.9094,-187500.0224,-187500.0224,-187500.0224,-187500.0224,0.34,-0.07,0.924,192,0,0,0,0,0,0,0,0,0,0
 2023-06-27 18:22:35.926,-187500.0224,-187500.0224,-187500.0224,-183404.0875,-187500.0224,-187500.0224,-187500.0224,-187500.0224,0.342,-0.07,0.92,192,10,176,253,208,28,192,0,0,0,0
 2023-06-27 18:22:35.926,-187500.0224,-187500.0224,-187500.0224,-182630.5384,-187500.0224,-187500.0224,-187500.0224,-187500.0224,0.342,-0.07,0.92,192,0,0,0,0,0,0,0,0,0,0
 2023-06-27 18:22:35.926,-187500.0224,-187500.0224,-187500.0224,-182310.9084,-187500.0224,-187500.0224,-187500.0224,-187500.0224,0.342,-0.07,0.92,192,0,0,0,0,0,0,0,0,0,0
 2023-06-27 18:22:35.926,-187500.0224,-187500.0224,-187500.0224,-182851.9547,-187500.0224,-187500.0224,-187500.0224,-187500.0224,0.342,-0.07,0.92,192,0,0,0,0,0,0,0,0,0,0
 2023-06-27 18:22:35.926,-187500.0224,-187500.0224,-187500.0224,-183520.786,-187500.0224,-187500.0224,-187500.0224,-187500.0224,0.342,-0.07,0.92,192,0,0,0,0,0,0,0,0,0,0
 2023-06-27 18:22:35.926,-187500.0224,-187500.0224,-187500.0224,-183417.2304,-187500.0224,-187500.0224,-187500.0224,-187500.0224,0.342,-0.07,0.92,192,0,0,0,0,0,0,0,0,0,0
 2023-06-27 18:22:35.926,-187500.0224,-187500.0224,-187500.0224,-182649.0456,-187500.0224,-187500.0224,-187500.0224,-187500.0224,0.342,-0.07,0.92,192,0,0,0,0,0,0,0,0,0,0
 2023-06-27 18:22:35.926,-187500.0224,-187500.0224,-187500.0224,-182316.3846,-187500.0224,-187500.0224,-187500.0224,-187500.0224,0.342,-0.07,0.92,192,0,0,0,0,0,0,0,0,0,0
 2023-06-27 18:22:35.926,-187500.0224,-187500.0224,-187500.0224,-182846.3668,-187500.0224,-187500.0224,-187500.0224,-187500.0224,0.342,-0.07,0.92,192,0,0,0,0,0,0,0,0,0,0
 2023-06-27 18:22:35.926,-187500.0224,-187500.0224,-187500.0224,-183522.8424,-187500.0224,-187500.0224,-187500.0224,-187500.0224,0.342,-0.07,0.92,192,0,0,0,0,0,0,0,0,0,0
 2023-06-27 18:22:35.926,-187500.0224,-187500.0224,-187500.0224,-183429.792,-187500.0224,-187500.0224,-187500.0224,-187500.0224,0.346,-0.07,0.922,192,10,208,253,208,28,208,0,0,0,0
 2023-06-27 18:22:35.927,-187500.0224,-187500.0224,-187500.0224,-182664.8036,-187500.0224,-187500.0224,-187500.0224,-187500.0224,0.346,-0.07,0.922,192,0,0,0,0,0,0,0,0,0,0
 2023-06-27 18:22:35.927,-187500.0224,-187500.0224,-187500.0224,-182323.2689,-187500.0224,-187500.0224,-187500.0224,-187500.0224,0.346,-0.07,0.922,192,0,0,0,0,0,0,0,0,0,0
 2023-06-27 18:22:35.927,-187500.0224,-187500.0224,-187500.0224,-182840.4212,-187500.0224,-187500.0224,-187500.0224,-187500.0224,0.346,-0.07,0.922,192,0,0,0,0,0,0,0,0,0,0
 2023-06-27 18:22:35.927,-187500.0224,-187500.0224,-187500.0224,-183525.4128,-187500.0224,-187500.0224,-187500.0224,-187500.0224,0.346,-0.07,0.922,192,0,0,0,0,0,0,0,0,0,0
 2023-06-27 18:22:35.927,-187500.0224,-187500.0224,-187500.0224,-183445.3712,-187500.0224,-187500.0224,-187500.0224,-187500.0224,0.346,-0.07,0.922,192,0,0,0,0,0,0,0,0,0,0
 2023-06-27 18:22:35.927,-187500.0224,-187500.0224,-187500.0224,-182683.8473,-187500.0224,-187500.0224,-187500.0224,-187500.0224,0.346,-0.07,0.922,192,0,0,0,0,0,0,0,0,0,0
 2023-06-27 18:22:35.927,-187500.0224,-187500.0224,-187500.0224,-182331.8073,-187500.0224,-187500.0224,-187500.0224,-187500.0224,0.346,-0.07,0.922,192,0,0,0,0,0,0,0,0,0,0
 2023-06-27 18:22:35.927,-187500.0224,-187500.0224,-187500.0224,-182836.7332,-187500.0224,-187500.0224,-187500.0224,-187500.0224,0.346,-0.07,0.922,192,0,0,0,0,0,0,0,0,0,0
 2023-06-27 18:22:35.927,-187500.0224,-187500.0224,-187500.0224,-183524.4964,-187500.0224,-187500.0224,-187500.0224,-187500.0224,0.346,-0.07,0.922,192,0,0,0,0,0,0,0,0,0,0
 2023-06-27 18:22:35.927,-187500.0224,-187500.0224,-187500.0224,-183456.0777,-187500.0224,-187500.0224,-187500.0224,-187500.0224,0.344,-0.072,0.926,192,10,192,253,192,28,240,0,0,0,0
 2023-06-27 18:22:35.927,-187500.0224,-187500.0224,-187500.0224,-182696.6101,-187500.0224,-187500.0224,-187500.0224,-187500.0224,0.344,-0.072,0.926,192,0,0,0,0,0,0,0,0,0,0
 2023-06-27 18:22:35.927,-187500.0224,-187500.0224,-187500.0224,-182332.3884,-187500.0224,-187500.0224,-187500.0224,-187500.0224,0.344,-0.072,0.926,192,0,0,0,0,0,0,0,0,0,0
 2023-06-27 18:22:35.927,-187500.0224,-187500.0224,-187500.0224,-182831.0782,-187500.0224,-187500.0224,-187500.0224,-187500.0224,0.344,-0.072,0.926,192,0,0,0,0,0,0,0,0,0,0
 2023-06-27 18:22:35.927,-187500.0224,-187500.0224,-187500.0224,-183529.4585,-187500.0224,-187500.0224,-187500.0224,-187500.0224,0.344,-0.072,0.926,192,0,0,0,0,0,0,0,0,0,0
 2023-06-27 18:22:35.927,-187500.0224,-187500.0224,-187500.0224,-183474.3614,-187500.0224,-187500.0224,-187500.0224,-187500.0224,0.344,-0.072,0.926,192,0,0,0,0,0,0,0,0,0,0
 2023-06-27 18:22:35.927,-187500.0224,-187500.0224,-187500.0224,-182718.6266,-187500.0224,-187500.0224,-187500.0224,-187500.0224,0.344,-0.072,0.926,192,0,0,0,0,0,0,0,0,0,0
 2023-06-27 18:22:35.927,-187500.0224,-187500.0224,-187500.0224,-182341.4856,-187500.0224,-187500.0224,-187500.0224,-187500.0224,0.344,-0.072,0.926,192,0,0,0,0,0,0,0,0,0,0
 2023-06-27 18:22:35.927,-187500.0224,-187500.0224,-187500.0224,-182825.2221,-187500.0224,-187500.0224,-187500.0224,-187500.0224,0.344,-0.072,0.926,192,0,0,0,0,0,0,0,0,0,0
 2023-06-27 18:22:35.927,-187500.0224,-187500.0224,-187500.0224,-183527.6256,-187500.0224,-187500.0224,-187500.0224,-187500.0224,0.344,-0.072,0.926,192,0,0,0,0,0,0,0,0,0,0
 2023-06-27 18:22:35.927,-187500.0224,-187500.0224,-187500.0224,-183483.2127,-187500.0224,-187500.0224,-187500.0224,-187500.0224,0.34,-0.07,0.93,192,10,160,253,208,29,16,0,0,0,0
 2023-06-27 18:22:35.927,-187500.0224,-187500.0224,-187500.0224,-182733.267,-187500.0224,-187500.0224,-187500.0224,-187500.0224,0.34,-0.07,0.93,192,0,0,0,0,0,0,0,0,0,0
 2023-06-27 18:22:35.927,-187500.0224,-187500.0224,-187500.0224,-182349.6887,-187500.0224,-187500.0224,-187500.0224,-187500.0224,0.34,-0.07,0.93,192,0,0,0,0,0,0,0,0,0,0
 2023-06-27 18:22:35.927,-187500.0224,-187500.0224,-187500.0224,-182824.5515,-187500.0224,-187500.0224,-187500.0224,-187500.0224,0.34,-0.07,0.93,192,0,0,0,0,0,0,0,0,0,0
 2023-06-27 18:22:35.927,-187500.0224,-187500.0224,-187500.0224,-183533.4818,-187500.0224,-187500.0224,-187500.0224,-187500.0224,0.34,-0.07,0.93,192,0,0,0,0,0,0,0,0,0,0
 2023-06-27 18:22:35.927,-187500.0224,-187500.0224,-187500.0224,-183498.2331,-187500.0224,-187500.0224,-187500.0224,-187500.0224,0.34,-0.07,0.93,192,0,0,0,0,0,0,0,0,0,0
 2023-06-27 18:22:35.927,-187500.0224,-187500.0224,-187500.0224,-182750.0308,-187500.0224,-187500.0224,-187500.0224,-187500.0224,0.34,-0.07,0.93,192,0,0,0,0,0,0,0,0,0,0
 2023-06-27 18:22:35.927,-187500.0224,-187500.0224,-187500.0224,-182354.0249,-187500.0224,-187500.0224,-187500.0224,-187500.0224,0.34,-0.07,0.93,192,0,0,0,0,0,0,0,0,0,0
 2023-06-27 18:22:35.927,-187500.0224,-187500.0224,-187500.0224,-182820.8188,-187500.0224,-187500.0224,-187500.0224,-187500.0224,0.34,-0.07,0.93,192,0,0,0,0,0,0,0,0,0,0
 2023-06-27 18:22:35.927,-187500.0224,-187500.0224,-187500.0224,-183534.7335,-187500.0224,-187500.0224,-187500.0224,-187500.0224,0.34,-0.07,0.93,192,0,0,0,0,0,0,0,0,0,0
 2023-06-27 18:22:35.927,-187500.0224,-187500.0224,-187500.0224,-183515.578,-187500.0224,-187500.0224,-187500.0224,-187500.0224,0.344,-0.07,0.928,192,10,192,253,208,29,0,0,0,0,0
 2023-06-27 18:22:35.927,-187500.0224,-187500.0224,-187500.0224,-182772.5166,-187500.0224,-187500.0224,-187500.0224,-187500.0224,0.344,-0.07,0.928,192,0,0,0,0,0,0,0,0,0,0
 2023-06-27 18:22:35.927,-187500.0224,-187500.0224,-187500.0224,-182366.7878,-187500.0224,-187500.0224,-187500.0224,-187500.0224,0.344,-0.07,0.928,192,0,0,0,0,0,0,0,0,0,0
 2023-06-27 18:22:35.927,-187500.0224,-187500.0224,-187500.0224,-182818.8071,-187500.0224,-187500.0224,-187500.0224,-187500.0224,0.344,-0.07,0.928,192,0,0,0,0,0,0,0,0,0,0
 2023-06-27 18:22:35.927,-187500.0224,-187500.0224,-187500.0224,-183534.0182,-187500.0224,-187500.0224,-187500.0224,-187500.0224,0.344,-0.07,0.928,192,0,0,0,0,0,0,0,0,0,0
 2023-06-27 18:22:35.927,-187500.0224,-187500.0224,-187500.0224,-183526.3069,-187500.0224,-187500.0224,-187500.0224,-187500.0224,0.344,-0.07,0.928,192,0,0,0,0,0,0,0,0,0,0
 2023-06-27 18:22:35.927,-187500.0224,-187500.0224,-187500.0224,-182786.7547,-187500.0224,-187500.0224,-187500.0224,-187500.0224,0.344,-0.07,0.928,192,0,0,0,0,0,0,0,0,0,0
 2023-06-27 18:22:35.927,-187500.0224,-187500.0224,-187500.0224,-182367.5254,-187500.0224,-187500.0224,-187500.0224,-187500.0224,0.344,-0.07,0.928,192,0,0,0,0,0,0,0,0,0,0
 2023-06-27 18:22:35.927,-187500.0224,-187500.0224,-187500.0224,-182809.6876,-187500.0224,-187500.0224,-187500.0224,-187500.0224,0.344,-0.07,0.928,192,0,0,0,0,0,0,0,0,0,0
 2023-06-27 18:22:35.927,-187500.0224,-187500.0224,-187500.0224,-183534.7111,-187500.0224,-187500.0224,-187500.0224,-187500.0224,0.344,-0.07,0.928,192,0,0,0,0,0,0,0,0,0,0
 2023-06-27 18:22:35.927,-187500.0224,-187500.0224,-187500.0224,-183539.2262,-187500.0224,-187500.0224,-187500.0224,-187500.0224,0.34,-0.064,0.926,192,10,160,254,0,28,240,0,0,0,0
 2023-06-27 18:22:35.927,-187500.0224,-187500.0224,-187500.0224,-182805.1949,-187500.0224,-187500.0224,-187500.0224,-187500.0224,0.34,-0.064,0.926,192,0,0,0,0,0,0,0,0,0,0
 2023-06-27 18:22:35.927,-187500.0224,-187500.0224,-187500.0224,-182375.2367,-187500.0224,-187500.0224,-187500.0224,-187500.0224,0.34,-0.064,0.926,192,0,0,0,0,0,0,0,0,0,0
 2023-06-27 18:22:35.927,-187500.0224,-187500.0224,-187500.0224,-182805.776,-187500.0224,-187500.0224,-187500.0224,-187500.0224,0.34,-0.064,0.926,192,0,0,0,0,0,0,0,0,0,0
 2023-06-27 18:22:35.927,-187500.0224,-187500.0224,-187500.0224,-183536.1193,-187500.0224,-187500.0224,-187500.0224,-187500.0224,0.34,-0.064,0.926,192,0,0,0,0,0,0,0,0,0,0
 2023-06-27 18:22:35.928,-187500.0224,-187500.0224,-187500.0224,-183551.4302,-187500.0224,-187500.0224,-187500.0224,-187500.0224,0.34,-0.064,0.926,192,0,0,0,0,0,0,0,0,0,0
 2023-06-27 18:22:35.928,-187500.0224,-187500.0224,-187500.0224,-182821.7128,-187500.0224,-187500.0224,-187500.0224,-187500.0224,0.34,-0.064,0.926,192,0,0,0,0,0,0,0,0,0,0
 2023-06-27 18:22:35.928,-187500.0224,-187500.0224,-187500.0224,-182383.2163,-187500.0224,-187500.0224,-187500.0224,-187500.0224,0.34,-0.064,0.926,192,0,0,0,0,0,0,0,0,0,0
 2023-06-27 18:22:35.928,-187500.0224,-187500.0224,-187500.0224,-182801.5739,-187500.0224,-187500.0224,-187500.0224,-187500.0224,0.34,-0.064,0.926,192,0,0,0,0,0,0,0,0,0,0
 2023-06-27 18:22:35.928,-187500.0224,-187500.0224,-187500.0224,-183538.6227,-187500.0224,-187500.0224,-187500.0224,-187500.0224,0.34,-0.064,0.926,192,0,0,0,0,0,0,0,0,0,0
 2023-06-27 18:22:35.928,-187500.0224,-187500.0224,-187500.0224,-183566.54,-187500.0224,-187500.0224,-187500.0224,-187500.0224,0.344,-0.068,0.926,192,10,192,253,224,28,240,0,0,0,0
 2023-06-27 18:22:35.928,-187500.0224,-187500.0224,-187500.0224,-182842.7682,-187500.0224,-187500.0224,-187500.0224,-187500.0224,0.344,-0.068,0.926,192,0,0,0,0,0,0,0,0,0,0
 2023-06-27 18:22:35.928,-187500.0224,-187500.0224,-187500.0224,-182389.5419,-187500.0224,-187500.0224,-187500.0224,-187500.0224,0.344,-0.068,0.926,192,0,0,0,0,0,0,0,0,0,0
 2023-06-27 18:22:35.928,-187500.0224,-187500.0224,-187500.0224,-182796.5671,-187500.0224,-187500.0224,-187500.0224,-187500.0224,0.344,-0.068,0.926,192,0,0,0,0,0,0,0,0,0,0
 2023-06-27 18:22:35.928,-187500.0224,-187500.0224,-187500.0224,-183537.1698,-187500.0224,-187500.0224,-187500.0224,-187500.0224,0.344,-0.068,0.926,192,0,0,0,0,0,0,0,0,0,0
 2023-06-27 18:22:35.928,-187500.0224,-187500.0224,-187500.0224,-183580.7334,-187500.0224,-187500.0224,-187500.0224,-187500.0224,0.344,-0.068,0.926,192,0,0,0,0,0,0,0,0,0,0
 2023-06-27 18:22:35.928,-187500.0224,-187500.0224,-187500.0224,-182860.7613,-187500.0224,-187500.0224,-187500.0224,-187500.0224,0.344,-0.068,0.926,192,0,0,0,0,0,0,0,0,0,0
 2023-06-27 18:22:35.928,-187500.0224,-187500.0224,-187500.0224,-182395.0851,-187500.0224,-187500.0224,-187500.0224,-187500.0224,0.344,-0.068,0.926,192,0,0,0,0,0,0,0,0,0,0
 2023-06-27 18:22:35.928,-187500.0224,-187500.0224,-187500.0224,-182787.6935,-187500.0224,-187500.0224,-187500.0224,-187500.0224,0.344,-0.068,0.926,192,0,0,0,0,0,0,0,0,0,0
 2023-06-27 18:22:35.928,-187500.0224,-187500.0224,-187500.0224,-183533.2806,-187500.0224,-187500.0224,-187500.0224,-187500.0224,0.344,-0.068,0.926,192,0,0,0,0,0,0,0,0,0,0
 2023-06-27 18:22:35.928,-187500.0224,-187500.0224,-187500.0224,-183589.0929,-187500.0224,-187500.0224,-187500.0224,-187500.0224,0.342,-0.072,0.926,192,10,176,253,192,28,240,0,0,0,0
 2023-06-27 18:22:35.928,-187500.0224,-187500.0224,-187500.0224,-182879.2239,-187500.0224,-187500.0224,-187500.0224,-187500.0224,0.342,-0.072,0.926,192,0,0,0,0,0,0,0,0,0,0
 2023-06-27 18:22:35.928,-187500.0224,-187500.0224,-187500.0224,-182406.0374,-187500.0224,-187500.0224,-187500.0224,-187500.0224,0.342,-0.072,0.926,192,0,0,0,0,0,0,0,0,0,0
 2023-06-27 18:22:35.928,-187500.0224,-187500.0224,-187500.0224,-182789.7498,-187500.0224,-187500.0224,-187500.0224,-187500.0224,0.342,-0.072,0.926,192,0,0,0,0,0,0,0,0,0,0
 2023-06-27 18:22:35.928,-187500.0224,-187500.0224,-187500.0224,-183539.5168,-187500.0224,-187500.0224,-187500.0224,-187500.0224,0.342,-0.072,0.926,192,0,0,0,0,0,0,0,0,0,0
 2023-06-27 18:22:35.928,-187500.0224,-187500.0224,-187500.0224,-183603.2863,-187500.0224,-187500.0224,-187500.0224,-187500.0224,0.342,-0.072,0.926,192,0,0,0,0,0,0,0,0,0,0
 2023-06-27 18:22:35.928,-187500.0224,-187500.0224,-187500.0224,-182900.0333,-187500.0224,-187500.0224,-187500.0224,-187500.0224,0.342,-0.072,0.926,192,0,0,0,0,0,0,0,0,0,0
 2023-06-27 18:22:35.928,-187500.0224,-187500.0224,-187500.0224,-182415.2911,-187500.0224,-187500.0224,-187500.0224,-187500.0224,0.342,-0.072,0.926,192,0,0,0,0,0,0,0,0,0,0
 2023-06-27 18:22:35.928,-187500.0224,-187500.0224,-187500.0224,-182782.4632,-187500.0224,-187500.0224,-187500.0224,-187500.0224,0.342,-0.072,0.926,192,0,0,0,0,0,0,0,0,0,0
 2023-06-27 18:22:35.928,-187500.0224,-187500.0224,-187500.0224,-183538.7791,-187500.0224,-187500.0224,-187500.0224,-187500.0224,0.342,-0.072,0.926,192,0,0,0,0,0,0,0,0,0,0
 2023-06-27 18:22:35.928,-187500.0224,-187500.0224,-187500.0224,-183616.9879,-187500.0224,-187500.0224,-187500.0224,-187500.0224,0.34,-0.074,0.924,192,10,160,253,176,28,224,0,0,0,0
 2023-06-27 18:22:36.405,-187500.0224,-187500.0224,-187500.0224,-182917.7136,-187500.0224,-187500.0224,-187500.0224,-187500.0224,0.34,-0.074,0.924,192,0,0,0,0,0,0,0,0,0,0
 2023-06-27 18:22:36.405,-187500.0224,-187500.0224,-187500.0224,-182419.5155,-187500.0224,-187500.0224,-187500.0224,-187500.0224,0.34,-0.074,0.924,192,0,0,0,0,0,0,0,0,0,0
 2023-06-27 18:22:36.405,-187500.0224,-187500.0224,-187500.0224,-182778.641,-187500.0224,-187500.0224,-187500.0224,-187500.0224,0.34,-0.074,0.924,192,0,0,0,0,0,0,0,0,0,0
 2023-06-27 18:22:36.405,-187500.0224,-187500.0224,-187500.0224,-183537.5945,-187500.0224,-187500.0224,-187500.0224,-187500.0224,0.34,-0.074,0.924,192,0,0,0,0,0,0,0,0,0,0
 2023-06-27 18:22:36.405,-187500.0224,-187500.0224,-187500.0224,-183625.5263,-187500.0224,-187500.0224,-187500.0224,-187500.0224,0.34,-0.074,0.924,192,0,0,0,0,0,0,0,0,0,0
 2023-06-27 18:22:36.405,-187500.0224,-187500.0224,-187500.0224,-182934.1421,-187500.0224,-187500.0224,-187500.0224,-187500.0224,0.34,-0.074,0.924,192,0,0,0,0,0,0,0,0,0,0
 2023-06-27 18:22:36.405,-187500.0224,-187500.0224,-187500.0224,-182426.8693,-187500.0224,-187500.0224,-187500.0224,-187500.0224,0.34,-0.074,0.924,192,0,0,0,0,0,0,0,0,0,0
 2023-06-27 18:22:36.405,-187500.0224,-187500.0224,-187500.0224,-182771.3096,-187500.0224,-187500.0224,-187500.0224,-187500.0224,0.34,-0.074,0.924,192,0,0,0,0,0,0,0,0,0,0
 2023-06-27 18:22:36.405,-187500.0224,-187500.0224,-187500.0224,-183533.1912,-187500.0224,-187500.0224,-187500.0224,-187500.0224,0.34,-0.074,0.924,192,0,0,0,0,0,0,0,0,0,0
 2023-06-27 18:22:36.405,-187500.0224,-187500.0224,-187500.0224,-183633.9305,-187500.0224,-187500.0224,-187500.0224,-187500.0224,0.338,-0.064,0.926,192,10,144,254,0,28,240,0,0,0,0
 2023-06-27 18:22:36.405,-187500.0224,-187500.0224,-187500.0224,-182952.4705,-187500.0224,-187500.0224,-187500.0224,-187500.0224,0.338,-0.064,0.926,192,0,0,0,0,0,0,0,0,0,0
 2023-06-27 18:22:36.405,-187500.0224,-187500.0224,-187500.0224,-182435.6982,-187500.0224,-187500.0224,-187500.0224,-187500.0224,0.338,-0.064,0.926,192,0,0,0,0,0,0,0,0,0,0
 2023-06-27 18:22:36.405,-187500.0224,-187500.0224,-187500.0224,-182769.298,-187500.0224,-187500.0224,-187500.0224,-187500.0224,0.338,-0.064,0.926,192,0,0,0,0,0,0,0,0,0,0
 2023-06-27 18:22:36.405,-187500.0224,-187500.0224,-187500.0224,-183535.4487,-187500.0224,-187500.0224,-187500.0224,-187500.0224,0.338,-0.064,0.926,192,0,0,0,0,0,0,0,0,0,0
 2023-06-27 18:22:36.405,-187500.0224,-187500.0224,-187500.0224,-183648.1909,-187500.0224,-187500.0224,-187500.0224,-187500.0224,0.338,-0.064,0.926,192,0,0,0,0,0,0,0,0,0,0
 2023-06-27 18:22:36.405,-187500.0224,-187500.0224,-187500.0224,-182971.9166,-187500.0224,-187500.0224,-187500.0224,-187500.0224,0.338,-0.064,0.926,192,0,0,0,0,0,0,0,0,0,0
 2023-06-27 18:22:36.405,-187500.0224,-187500.0224,-187500.0224,-182445.3095,-187500.0224,-187500.0224,-187500.0224,-187500.0224,0.338,-0.064,0.926,192,0,0,0,0,0,0,0,0,0,0
 2023-06-27 18:22:36.405,-187500.0224,-187500.0224,-187500.0224,-182765.61,-187500.0224,-187500.0224,-187500.0224,-187500.0224,0.338,-0.064,0.926,192,0,0,0,0,0,0,0,0,0,0
 2023-06-27 18:22:36.405,-187500.0224,-187500.0224,-187500.0224,-183533.3477,-187500.0224,-187500.0224,-187500.0224,-187500.0224,0.338,-0.064,0.926,192,0,0,0,0,0,0,0,0,0,0
 2023-06-27 18:22:36.405,-187500.0224,-187500.0224,-187500.0224,-183657.1316,-187500.0224,-187500.0224,-187500.0224,-187500.0224,0.342,-0.07,0.928,192,10,176,253,208,29,0,0,0,0,0
 2023-06-27 18:22:36.405,-187500.0224,-187500.0224,-187500.0224,-182987.3393,-187500.0224,-187500.0224,-187500.0224,-187500.0224,0.342,-0.07,0.928,192,0,0,0,0,0,0,0,0,0,0
 2023-06-27 18:22:36.405,-187500.0224,-187500.0224,-187500.0224,-182451.255,-187500.0224,-187500.0224,-187500.0224,-187500.0224,0.342,-0.07,0.928,192,0,0,0,0,0,0,0,0,0,0
 2023-06-27 18:22:36.406,-187500.0224,-187500.0224,-187500.0224,-182759.575,-187500.0224,-187500.0224,-187500.0224,-187500.0224,0.342,-0.07,0.928,192,0,0,0,0,0,0,0,0,0,0
 2023-06-27 18:22:36.406,-187500.0224,-187500.0224,-187500.0224,-183531.5372,-187500.0224,-187500.0224,-187500.0224,-187500.0224,0.342,-0.07,0.928,192,0,0,0,0,0,0,0,0,0,0
 2023-06-27 18:22:36.406,-187500.0224,-187500.0224,-187500.0224,-183668.4416,-187500.0224,-187500.0224,-187500.0224,-187500.0224,0.342,-0.07,0.928,192,0,0,0,0,0,0,0,0,0,0
 2023-06-27 18:22:36.406,-187500.0224,-187500.0224,-187500.0224,-183006.2265,-187500.0224,-187500.0224,-187500.0224,-187500.0224,0.342,-0.07,0.928,192,0,0,0,0,0,0,0,0,0,0
 2023-06-27 18:22:36.406,-187500.0224,-187500.0224,-187500.0224,-182458.7205,-187500.0224,-187500.0224,-187500.0224,-187500.0224,0.342,-0.07,0.928,192,0,0,0,0,0,0,0,0,0,0
 2023-06-27 18:22:36.406,-187500.0224,-187500.0224,-187500.0224,-182755.9316,-187500.0224,-187500.0224,-187500.0224,-187500.0224,0.342,-0.07,0.928,192,0,0,0,0,0,0,0,0,0,0
 2023-06-27 18:22:36.406,-187500.0224,-187500.0224,-187500.0224,-183527.9385,-187500.0224,-187500.0224,-187500.0224,-187500.0224,0.342,-0.07,0.928,192,0,0,0,0,0,0,0,0,0,0
 2023-06-27 18:22:36.406,-187500.0224,-187500.0224,-187500.0224,-183673.2249,-187500.0224,-187500.0224,-187500.0224,-187500.0224,0.342,-0.066,0.926,192,10,176,253,240,28,240,0,0,0,0
 2023-06-27 18:22:36.406,-187500.0224,-187500.0224,-187500.0224,-183021.8951,-187500.0224,-187500.0224,-187500.0224,-187500.0224,0.342,-0.066,0.926,192,0,0,0,0,0,0,0,0,0,0
 2023-06-27 18:22:36.406,-187500.0224,-187500.0224,-187500.0224,-182466.9236,-187500.0224,-187500.0224,-187500.0224,-187500.0224,0.342,-0.066,0.926,192,0,0,0,0,0,0,0,0,0,0
 2023-06-27 18:22:36.406,-187500.0224,-187500.0224,-187500.0224,-182749.472,-187500.0224,-187500.0224,-187500.0224,-187500.0224,0.342,-0.066,0.926,192,0,0,0,0,0,0,0,0,0,0
 2023-06-27 18:22:36.406,-187500.0224,-187500.0224,-187500.0224,-183524.3399,-187500.0224,-187500.0224,-187500.0224,-187500.0224,0.342,-0.066,0.926,192,0,0,0,0,0,0,0,0,0,0
 2023-06-27 18:22:36.406,-187500.0224,-187500.0224,-187500.0224,-183683.462,-187500.0224,-187500.0224,-187500.0224,-187500.0224,0.342,-0.066,0.926,192,0,0,0,0,0,0,0,0,0,0
 2023-06-27 18:22:36.406,-187500.0224,-187500.0224,-187500.0224,-183040.894,-187500.0224,-187500.0224,-187500.0224,-187500.0224,0.342,-0.066,0.926,192,0,0,0,0,0,0,0,0,0,0
 2023-06-27 18:22:36.406,-187500.0224,-187500.0224,-187500.0224,-182476.8031,-187500.0224,-187500.0224,-187500.0224,-187500.0224,0.342,-0.066,0.926,192,0,0,0,0,0,0,0,0,0,0
 2023-06-27 18:22:36.406,-187500.0224,-187500.0224,-187500.0224,-182747.4603,-187500.0224,-187500.0224,-187500.0224,-187500.0224,0.342,-0.066,0.926,192,0,0,0,0,0,0,0,0,0,0
 2023-06-27 18:22:36.406,-187500.0224,-187500.0224,-187500.0224,-183523.3341,-187500.0224,-187500.0224,-187500.0224,-187500.0224,0.342,-0.066,0.926,192,0,0,0,0,0,0,0,0,0,0
 2023-06-27 18:22:36.406,-187500.0224,-187500.0224,-187500.0224,-183692.425,-187500.0224,-187500.0224,-187500.0224,-187500.0224,0.342,-0.066,0.926,192,0,0,0,0,0,0,0,0,0,0
 2023-06-27 18:22:36.406,-187500.0224,-187500.0224,-187500.0224,-183053.6122,-187500.0224,-187500.0224,-187500.0224,-187500.0224,0.336,-0.066,0.922,192,10,128,253,240,28,208,0,0,0,0
 2023-06-27 18:22:36.406,-187500.0224,-187500.0224,-187500.0224,-182481.3405,-187500.0224,-187500.0224,-187500.0224,-187500.0224,0.336,-0.066,0.922,192,0,0,0,0,0,0,0,0,0,0
 2023-06-27 18:22:36.406,-187500.0224,-187500.0224,-187500.0224,-182744.197,-187500.0224,-187500.0224,-187500.0224,-187500.0224,0.336,-0.066,0.922,192,0,0,0,0,0,0,0,0,0,0
 2023-06-27 18:22:36.406,-187500.0224,-187500.0224,-187500.0224,-183522.2836,-187500.0224,-187500.0224,-187500.0224,-187500.0224,0.336,-0.066,0.922,192,0,0,0,0,0,0,0,0,0,0
 2023-06-27 18:22:36.406,-187500.0224,-187500.0224,-187500.0224,-183702.4386,-187500.0224,-187500.0224,-187500.0224,-187500.0224,0.336,-0.066,0.922,192,0,0,0,0,0,0,0,0,0,0
 2023-06-27 18:22:36.406,-187500.0224,-187500.0224,-187500.0224,-183076.0757,-187500.0224,-187500.0224,-187500.0224,-187500.0224,0.336,-0.066,0.922,192,0,0,0,0,0,0,0,0,0,0
 2023-06-27 18:22:36.406,-187500.0224,-187500.0224,-187500.0224,-182493.6339,-187500.0224,-187500.0224,-187500.0224,-187500.0224,0.336,-0.066,0.922,192,0,0,0,0,0,0,0,0,0,0
 2023-06-27 18:22:36.406,-187500.0224,-187500.0224,-187500.0224,-182738.8549,-187500.0224,-187500.0224,-187500.0224,-187500.0224,0.336,-0.066,0.922,192,0,0,0,0,0,0,0,0,0,0
 2023-06-27 18:22:36.406,-187500.0224,-187500.0224,-187500.0224,-183519.579,-187500.0224,-187500.0224,-187500.0224,-187500.0224,0.336,-0.066,0.922,192,0,0,0,0,0,0,0,0,0,0
 2023-06-27 18:22:36.406,-187500.0224,-187500.0224,-187500.0224,-183714.9109,-187500.0224,-187500.0224,-187500.0224,-187500.0224,0.336,-0.066,0.922,192,0,0,0,0,0,0,0,0,0,0
 2023-06-27 18:22:36.406,-187500.0224,-187500.0224,-187500.0224,-183092.996,-187500.0224,-187500.0224,-187500.0224,-187500.0224,0.344,-0.062,0.92,192,10,192,254,16,28,192,0,0,0,0
 2023-06-27 18:22:36.406,-187500.0224,-187500.0224,-187500.0224,-182499.736,-187500.0224,-187500.0224,-187500.0224,-187500.0224,0.344,-0.062,0.92,192,0,0,0,0,0,0,0,0,0,0
 2023-06-27 18:22:36.406,-187500.0224,-187500.0224,-187500.0224,-182732.3059,-187500.0224,-187500.0224,-187500.0224,-187500.0224,0.344,-0.062,0.92,192,0,0,0,0,0,0,0,0,0,0
 2023-06-27 18:22:36.406,-187500.0224,-187500.0224,-187500.0224,-183514.3934,-187500.0224,-187500.0224,-187500.0224,-187500.0224,0.344,-0.062,0.92,192,0,0,0,0,0,0,0,0,0,0
 2023-06-27 18:22:36.406,-187500.0224,-187500.0224,-187500.0224,-183723.6281,-187500.0224,-187500.0224,-187500.0224,-187500.0224,0.344,-0.062,0.92,192,0,0,0,0,0,0,0,0,0,0
 2023-06-27 18:22:36.406,-187500.0224,-187500.0224,-187500.0224,-183112.2855,-187500.0224,-187500.0224,-187500.0224,-187500.0224,0.344,-0.062,0.92,192,0,0,0,0,0,0,0,0,0,0
 2023-06-27 18:22:36.406,-187500.0224,-187500.0224,-187500.0224,-182510.2636,-187500.0224,-187500.0224,-187500.0224,-187500.0224,0.344,-0.062,0.92,192,0,0,0,0,0,0,0,0,0,0
 2023-06-27 18:22:36.406,-187500.0224,-187500.0224,-187500.0224,-182728.3496,-187500.0224,-187500.0224,-187500.0224,-187500.0224,0.344,-0.062,0.92,192,0,0,0,0,0,0,0,0,0,0
 2023-06-27 18:22:36.406,-187500.0224,-187500.0224,-187500.0224,-183511.4653,-187500.0224,-187500.0224,-187500.0224,-187500.0224,0.344,-0.062,0.92,192,0,0,0,0,0,0,0,0,0,0
 2023-06-27 18:22:36.406,-187500.0224,-187500.0224,-187500.0224,-183730.2889,-187500.0224,-187500.0224,-187500.0224,-187500.0224,0.344,-0.062,0.92,192,0,0,0,0,0,0,0,0,0,0
 2023-06-27 18:22:36.406,-187500.0224,-187500.0224,-187500.0224,-183126.5236,-187500.0224,-187500.0224,-187500.0224,-187500.0224,0.344,-0.062,0.924,192,10,192,254,16,28,224,0,0,0,0
 2023-06-27 18:22:36.406,-187500.0224,-187500.0224,-187500.0224,-182518.8914,-187500.0224,-187500.0224,-187500.0224,-187500.0224,0.344,-0.062,0.924,192,0,0,0,0,0,0,0,0,0,0
 2023-06-27 18:22:36.406,-187500.0224,-187500.0224,-187500.0224,-182727.8355,-187500.0224,-187500.0224,-187500.0224,-187500.0224,0.344,-0.062,0.924,192,0,0,0,0,0,0,0,0,0,0
 2023-06-27 18:22:36.406,-187500.0224,-187500.0224,-187500.0224,-183507.6432,-187500.0224,-187500.0224,-187500.0224,-187500.0224,0.344,-0.062,0.924,192,0,0,0,0,0,0,0,0,0,0
 2023-06-27 18:22:36.406,-187500.0224,-187500.0224,-187500.0224,-183739.3637,-187500.0224,-187500.0224,-187500.0224,-187500.0224,0.344,-0.062,0.924,192,0,0,0,0,0,0,0,0,0,0
 2023-06-27 18:22:36.406,-187500.0224,-187500.0224,-187500.0224,-183147.6683,-187500.0224,-187500.0224,-187500.0224,-187500.0224,0.344,-0.062,0.924,192,0,0,0,0,0,0,0,0,0,0
 2023-06-27 18:22:36.406,-187500.0224,-187500.0224,-187500.0224,-182526.871,-187500.0224,-187500.0224,-187500.0224,-187500.0224,0.344,-0.062,0.924,192,0,0,0,0,0,0,0,0,0,0
 2023-06-27 18:22:36.406,-187500.0224,-187500.0224,-187500.0224,-182721.6217,-187500.0224,-187500.0224,-187500.0224,-187500.0224,0.344,-0.062,0.924,192,0,0,0,0,0,0,0,0,0,0
 2023-06-27 18:22:36.406,-187500.0224,-187500.0224,-187500.0224,-183505.6315,-187500.0224,-187500.0224,-187500.0224,-187500.0224,0.344,-0.062,0.924,192,0,0,0,0,0,0,0,0,0,0
 2023-06-27 18:22:36.406,-187500.0224,-187500.0224,-187500.0224,-183748.4609,-187500.0224,-187500.0224,-187500.0224,-187500.0224,0.344,-0.062,0.924,192,0,0,0,0,0,0,0,0,0,0
 2023-06-27 18:22:36.406,-187500.0224,-187500.0224,-187500.0224,-183164.1192,-187500.0224,-187500.0224,-187500.0224,-187500.0224,0.348,-0.06,0.93,192,10,224,254,32,29,16,0,0,0,0
 2023-06-27 18:22:36.406,-187500.0224,-187500.0224,-187500.0224,-182535.1411,-187500.0224,-187500.0224,-187500.0224,-187500.0224,0.348,-0.06,0.93,192,0,0,0,0,0,0,0,0,0,0
 2023-06-27 18:22:36.406,-187500.0224,-187500.0224,-187500.0224,-182716.7714,-187500.0224,-187500.0224,-187500.0224,-187500.0224,0.348,-0.06,0.93,192,0,0,0,0,0,0,0,0,0,0
 2023-06-27 18:22:36.406,-187500.0224,-187500.0224,-187500.0224,-183499.5965,-187500.0224,-187500.0224,-187500.0224,-187500.0224,0.348,-0.06,0.93,192,0,0,0,0,0,0,0,0,0,0
 2023-06-27 18:22:36.406,-187500.0224,-187500.0224,-187500.0224,-183754.5629,-187500.0224,-187500.0224,-187500.0224,-187500.0224,0.348,-0.06,0.93,192,0,0,0,0,0,0,0,0,0,0
 2023-06-27 18:22:36.406,-187500.0224,-187500.0224,-187500.0224,-183178.3349,-187500.0224,-187500.0224,-187500.0224,-187500.0224,0.348,-0.06,0.93,192,0,0,0,0,0,0,0,0,0,0
 2023-06-27 18:22:36.406,-187500.0224,-187500.0224,-187500.0224,-182541.422,-187500.0224,-187500.0224,-187500.0224,-187500.0224,0.348,-0.06,0.93,192,0,0,0,0,0,0,0,0,0,0
 2023-06-27 18:22:36.406,-187500.0224,-187500.0224,-187500.0224,-182711.6081,-187500.0224,-187500.0224,-187500.0224,-187500.0224,0.348,-0.06,0.93,192,0,0,0,0,0,0,0,0,0,0
 2023-06-27 18:22:36.406,-187500.0224,-187500.0224,-187500.0224,-183493.0028,-187500.0224,-187500.0224,-187500.0224,-187500.0224,0.348,-0.06,0.93,192,0,0,0,0,0,0,0,0,0,0
 2023-06-27 18:22:36.406,-187500.0224,-187500.0224,-187500.0224,-183761.2237,-187500.0224,-187500.0224,-187500.0224,-187500.0224,0.348,-0.06,0.93,192,0,0,0,0,0,0,0,0,0,0
 2023-06-27 18:22:36.406,-187500.0224,-187500.0224,-187500.0224,-183196.3951,-187500.0224,-187500.0224,-187500.0224,-187500.0224,0.344,-0.068,0.926,192,10,192,253,224,28,240,0,0,0,0
 2023-06-27 18:22:36.406,-187500.0224,-187500.0224,-187500.0224,-182552.6872,-187500.0224,-187500.0224,-187500.0224,-187500.0224,0.344,-0.068,0.926,192,0,0,0,0,0,0,0,0,0,0
 2023-06-27 18:22:36.406,-187500.0224,-187500.0224,-187500.0224,-182709.9094,-187500.0224,-187500.0224,-187500.0224,-187500.0224,0.344,-0.068,0.926,192,0,0,0,0,0,0,0,0,0,0
 2023-06-27 18:22:36.406,-187500.0224,-187500.0224,-187500.0224,-183486.342,-187500.0224,-187500.0224,-187500.0224,-187500.0224,0.344,-0.068,0.926,192,0,0,0,0,0,0,0,0,0,0
 2023-06-27 18:22:36.406,-187500.0224,-187500.0224,-187500.0224,-183768.2645,-187500.0224,-187500.0224,-187500.0224,-187500.0224,0.344,-0.068,0.926,192,0,0,0,0,0,0,0,0,0,0
 2023-06-27 18:22:36.406,-187500.0224,-187500.0224,-187500.0224,-183212.6672,-187500.0224,-187500.0224,-187500.0224,-187500.0224,0.344,-0.068,0.926,192,0,0,0,0,0,0,0,0,0,0
 2023-06-27 18:22:36.406,-187500.0224,-187500.0224,-187500.0224,-182558.2975,-187500.0224,-187500.0224,-187500.0224,-187500.0224,0.344,-0.068,0.926,192,0,0,0,0,0,0,0,0,0,0
 2023-06-27 18:22:36.406,-187500.0224,-187500.0224,-187500.0224,-182706.2214,-187500.0224,-187500.0224,-187500.0224,-187500.0224,0.344,-0.068,0.926,192,0,0,0,0,0,0,0,0,0,0
 2023-06-27 18:22:36.406,-187500.0224,-187500.0224,-187500.0224,-183486.9454,-187500.0224,-187500.0224,-187500.0224,-187500.0224,0.344,-0.068,0.926,192,0,0,0,0,0,0,0,0,0,0
 2023-06-27 18:22:36.406,-187500.0224,-187500.0224,-187500.0224,-183777.0487,-187500.0224,-187500.0224,-187500.0224,-187500.0224,0.344,-0.068,0.926,192,0,0,0,0,0,0,0,0,0,0
 2023-06-27 18:22:36.406,-187500.0224,-187500.0224,-187500.0224,-183230.3698,-187500.0224,-187500.0224,-187500.0224,-187500.0224,0.344,-0.07,0.926,192,10,192,253,208,28,240,0,0,0,0
 2023-06-27 18:22:36.406,-187500.0224,-187500.0224,-187500.0224,-182569.0487,-187500.0224,-187500.0224,-187500.0224,-187500.0224,0.344,-0.07,0.926,192,0,0,0,0,0,0,0,0,0,0
 2023-06-27 18:22:36.407,-187500.0224,-187500.0224,-187500.0224,-182704.6791,-187500.0224,-187500.0224,-187500.0224,-187500.0224,0.344,-0.07,0.926,192,0,0,0,0,0,0,0,0,0,0
 2023-06-27 18:22:36.407,-187500.0224,-187500.0224,-187500.0224,-183487.3701,-187500.0224,-187500.0224,-187500.0224,-187500.0224,0.344,-0.07,0.926,192,0,0,0,0,0,0,0,0,0,0
 2023-06-27 18:22:36.407,-187500.0224,-187500.0224,-187500.0224,-183789.4987,-187500.0224,-187500.0224,-187500.0224,-187500.0224,0.344,-0.07,0.926,192,0,0,0,0,0,0,0,0,0,0
 2023-06-27 18:22:36.407,-187500.0224,-187500.0224,-187500.0224,-183254.2191,-187500.0224,-187500.0224,-187500.0224,-187500.0224,0.344,-0.07,0.926,192,0,0,0,0,0,0,0,0,0,0
 2023-06-27 18:22:36.407,-187500.0224,-187500.0224,-187500.0224,-182583.7115,-187500.0224,-187500.0224,-187500.0224,-187500.0224,0.344,-0.07,0.926,192,0,0,0,0,0,0,0,0,0,0
 2023-06-27 18:22:36.407,-187500.0224,-187500.0224,-187500.0224,-182703.7403,-187500.0224,-187500.0224,-187500.0224,-187500.0224,0.344,-0.07,0.926,192,0,0,0,0,0,0,0,0,0,0
 2023-06-27 18:22:36.407,-187500.0224,-187500.0224,-187500.0224,-183483.3468,-187500.0224,-187500.0224,-187500.0224,-187500.0224,0.344,-0.07,0.926,192,0,0,0,0,0,0,0,0,0,0
 2023-06-27 18:22:36.407,-187500.0224,-187500.0224,-187500.0224,-183797.0759,-187500.0224,-187500.0224,-187500.0224,-187500.0224,0.344,-0.07,0.926,192,0,0,0,0,0,0,0,0,0,0
 2023-06-27 18:22:36.407,-187500.0224,-187500.0224,-187500.0224,-183269.8206,-187500.0224,-187500.0224,-187500.0224,-187500.0224,0.35,-0.068,0.926,192,10,240,253,224,28,240,0,0,0,0
 2023-06-27 18:22:36.407,-187500.0224,-187500.0224,-187500.0224,-182591.1099,-187500.0224,-187500.0224,-187500.0224,-187500.0224,0.35,-0.068,0.926,192,0,0,0,0,0,0,0,0,0,0
 2023-06-27 18:22:36.407,-187500.0224,-187500.0224,-187500.0224,-182698.5771,-187500.0224,-187500.0224,-187500.0224,-187500.0224,0.35,-0.068,0.926,192,0,0,0,0,0,0,0,0,0,0
 2023-06-27 18:22:36.407,-187500.0224,-187500.0224,-187500.0224,-183473.7803,-187500.0224,-187500.0224,-187500.0224,-187500.0224,0.35,-0.068,0.926,192,0,0,0,0,0,0,0,0,0,0
 2023-06-27 18:22:36.407,-187500.0224,-187500.0224,-187500.0224,-183798.7076,-187500.0224,-187500.0224,-187500.0224,-187500.0224,0.35,-0.068,0.926,192,0,0,0,0,0,0,0,0,0,0
 2023-06-27 18:22:36.407,-187500.0224,-187500.0224,-187500.0224,-183287.4561,-187500.0224,-187500.0224,-187500.0224,-187500.0224,0.35,-0.068,0.926,192,0,0,0,0,0,0,0,0,0,0
 2023-06-27 18:22:36.407,-187500.0224,-187500.0224,-187500.0224,-182605.8397,-187500.0224,-187500.0224,-187500.0224,-187500.0224,0.35,-0.068,0.926,192,0,0,0,0,0,0,0,0,0,0
 2023-06-27 18:22:36.407,-187500.0224,-187500.0224,-187500.0224,-182702.131,-187500.0224,-187500.0224,-187500.0224,-187500.0224,0.35,-0.068,0.926,192,0,0,0,0,0,0,0,0,0,0
 2023-06-27 18:22:36.407,-187500.0224,-187500.0224,-187500.0224,-183474.0485,-187500.0224,-187500.0224,-187500.0224,-187500.0224,0.35,-0.068,0.926,192,0,0,0,0,0,0,0,0,0,0
 2023-06-27 18:22:36.407,-187500.0224,-187500.0224,-187500.0224,-183808.9223,-187500.0224,-187500.0224,-187500.0224,-187500.0224,0.35,-0.068,0.926,192,0,0,0,0,0,0,0,0,0,0
 2023-06-27 18:22:36.407,-187500.0224,-187500.0224,-187500.0224,-183307.081,-187500.0224,-187500.0224,-187500.0224,-187500.0224,0.348,-0.066,0.92,192,10,224,253,240,28,192,0,0,0,0
 2023-06-27 18:22:36.407,-187500.0224,-187500.0224,-187500.0224,-182614.6463,-187500.0224,-187500.0224,-187500.0224,-187500.0224,0.348,-0.066,0.92,192,0,0,0,0,0,0,0,0,0,0
 2023-06-27 18:22:36.407,-187500.0224,-187500.0224,-187500.0224,-182697.2136,-187500.0224,-187500.0224,-187500.0224,-187500.0224,0.348,-0.066,0.92,192,0,0,0,0,0,0,0,0,0,0
 2023-06-27 18:22:36.407,-187500.0224,-187500.0224,-187500.0224,-183470.2263,-187500.0224,-187500.0224,-187500.0224,-187500.0224,0.348,-0.066,0.92,192,0,0,0,0,0,0,0,0,0,0
 2023-06-27 18:22:36.407,-187500.0224,-187500.0224,-187500.0224,-183816.5219,-187500.0224,-187500.0224,-187500.0224,-187500.0224,0.348,-0.066,0.92,192,0,0,0,0,0,0,0,0,0,0
 2023-06-27 18:22:36.407,-187500.0224,-187500.0224,-187500.0224,-183325.767,-187500.0224,-187500.0224,-187500.0224,-187500.0224,0.348,-0.066,0.92,192,0,0,0,0,0,0,0,0,0,0
 2023-06-27 18:22:36.407,-187500.0224,-187500.0224,-187500.0224,-182627.9903,-187500.0224,-187500.0224,-187500.0224,-187500.0224,0.348,-0.066,0.92,192,0,0,0,0,0,0,0,0,0,0
 2023-06-27 18:22:36.407,-187500.0224,-187500.0224,-187500.0224,-182697.3924,-187500.0224,-187500.0224,-187500.0224,-187500.0224,0.348,-0.066,0.92,192,0,0,0,0,0,0,0,0,0,0
 2023-06-27 18:22:36.407,-187500.0224,-187500.0224,-187500.0224,-183465.2196,-187500.0224,-187500.0224,-187500.0224,-187500.0224,0.348,-0.066,0.92,192,0,0,0,0,0,0,0,0,0,0
 2023-06-27 18:22:36.407,-187500.0224,-187500.0224,-187500.0224,-183822.8251,-187500.0224,-187500.0224,-187500.0224,-187500.0224,0.348,-0.066,0.92,192,0,0,0,0,0,0,0,0,0,0
 2023-06-27 18:22:36.886,-187500.0224,-187500.0224,-187500.0224,-183341.1227,-187500.0224,-187500.0224,-187500.0224,-187500.0224,0.344,-0.066,0.922,192,10,192,253,240,28,208,0,0,0,0
 2023-06-27 18:22:36.886,-187500.0224,-187500.0224,-187500.0224,-182640.5966,-187500.0224,-187500.0224,-187500.0224,-187500.0224,0.344,-0.066,0.922,192,0,0,0,0,0,0,0,0,0,0
 2023-06-27 18:22:36.886,-187500.0224,-187500.0224,-187500.0224,-182700.2535,-187500.0224,-187500.0224,-187500.0224,-187500.0224,0.344,-0.066,0.922,192,0,0,0,0,0,0,0,0,0,0
 2023-06-27 18:22:36.886,-187500.0224,-187500.0224,-187500.0224,-183465.7336,-187500.0224,-187500.0224,-187500.0224,-187500.0224,0.344,-0.066,0.922,192,0,0,0,0,0,0,0,0,0,0
 2023-06-27 18:22:36.886,-187500.0224,-187500.0224,-187500.0224,-183832.9057,-187500.0224,-187500.0224,-187500.0224,-187500.0224,0.344,-0.066,0.922,192,0,0,0,0,0,0,0,0,0,0
 2023-06-27 18:22:36.886,-187500.0224,-187500.0224,-187500.0224,-183361.9545,-187500.0224,-187500.0224,-187500.0224,-187500.0224,0.344,-0.066,0.922,192,0,0,0,0,0,0,0,0,0,0
 2023-06-27 18:22:36.886,-187500.0224,-187500.0224,-187500.0224,-182655.0135,-187500.0224,-187500.0224,-187500.0224,-187500.0224,0.344,-0.066,0.922,192,0,0,0,0,0,0,0,0,0,0
 2023-06-27 18:22:36.886,-187500.0224,-187500.0224,-187500.0224,-182701.1699,-187500.0224,-187500.0224,-187500.0224,-187500.0224,0.344,-0.066,0.922,192,0,0,0,0,0,0,0,0,0,0
 2023-06-27 18:22:36.886,-187500.0224,-187500.0224,-187500.0224,-183461.5986,-187500.0224,-187500.0224,-187500.0224,-187500.0224,0.344,-0.066,0.922,192,0,0,0,0,0,0,0,0,0,0
 2023-06-27 18:22:36.886,-187500.0224,-187500.0224,-187500.0224,-183839.276,-187500.0224,-187500.0224,-187500.0224,-187500.0224,0.344,-0.066,0.922,192,0,0,0,0,0,0,0,0,0,0
 2023-06-27 18:22:36.886,-187500.0224,-187500.0224,-187500.0224,-183382.8981,-187500.0224,-187500.0224,-187500.0224,-187500.0224,0.342,-0.066,0.916,192,10,176,253,240,28,160,0,0,0,0
 2023-06-27 18:22:36.886,-187500.0224,-187500.0224,-187500.0224,-182669.3633,-187500.0224,-187500.0224,-187500.0224,-187500.0224,0.342,-0.066,0.916,192,0,0,0,0,0,0,0,0,0,0
 2023-06-27 18:22:36.886,-187500.0224,-187500.0224,-187500.0224,-182702.9357,-187500.0224,-187500.0224,-187500.0224,-187500.0224,0.342,-0.066,0.916,192,0,0,0,0,0,0,0,0,0,0
 2023-06-27 18:22:36.886,-187500.0224,-187500.0224,-187500.0224,-183460.1681,-187500.0224,-187500.0224,-187500.0224,-187500.0224,0.342,-0.066,0.916,192,0,0,0,0,0,0,0,0,0,0
 2023-06-27 18:22:36.886,-187500.0224,-187500.0224,-187500.0224,-183849.4684,-187500.0224,-187500.0224,-187500.0224,-187500.0224,0.342,-0.066,0.916,192,0,0,0,0,0,0,0,0,0,0
 2023-06-27 18:22:36.886,-187500.0224,-187500.0224,-187500.0224,-183403.2829,-187500.0224,-187500.0224,-187500.0224,-187500.0224,0.342,-0.066,0.916,192,0,0,0,0,0,0,0,0,0,0
 2023-06-27 18:22:36.886,-187500.0224,-187500.0224,-187500.0224,-182681.4556,-187500.0224,-187500.0224,-187500.0224,-187500.0224,0.342,-0.066,0.916,192,0,0,0,0,0,0,0,0,0,0
 2023-06-27 18:22:36.886,-187500.0224,-187500.0224,-187500.0224,-182697.9959,-187500.0224,-187500.0224,-187500.0224,-187500.0224,0.342,-0.066,0.916,192,0,0,0,0,0,0,0,0,0,0
 2023-06-27 18:22:36.886,-187500.0224,-187500.0224,-187500.0224,-183449.931,-187500.0224,-187500.0224,-187500.0224,-187500.0224,0.342,-0.066,0.916,192,0,0,0,0,0,0,0,0,0,0
 2023-06-27 18:22:36.886,-187500.0224,-187500.0224,-187500.0224,-183852.4635,-187500.0224,-187500.0224,-187500.0224,-187500.0224,0.342,-0.066,0.916,192,0,0,0,0,0,0,0,0,0,0
 2023-06-27 18:22:36.887,-187500.0224,-187500.0224,-187500.0224,-183416.448,-187500.0224,-187500.0224,-187500.0224,-187500.0224,0.34,-0.066,0.924,192,10,160,253,240,28,224,0,0,0,0
 2023-06-27 18:22:36.887,-187500.0224,-187500.0224,-187500.0224,-182690.2175,-187500.0224,-187500.0224,-187500.0224,-187500.0224,0.34,-0.066,0.924,192,0,0,0,0,0,0,0,0,0,0
 2023-06-27 18:22:36.887,-187500.0224,-187500.0224,-187500.0224,-182698.2865,-187500.0224,-187500.0224,-187500.0224,-187500.0224,0.34,-0.066,0.924,192,0,0,0,0,0,0,0,0,0,0
 2023-06-27 18:22:36.887,-187500.0224,-187500.0224,-187500.0224,-183449.0592,-187500.0224,-187500.0224,-187500.0224,-187500.0224,0.34,-0.066,0.924,192,0,0,0,0,0,0,0,0,0,0
 2023-06-27 18:22:36.887,-187500.0224,-187500.0224,-187500.0224,-183856.6657,-187500.0224,-187500.0224,-187500.0224,-187500.0224,0.34,-0.066,0.924,192,0,0,0,0,0,0,0,0,0,0
 2023-06-27 18:22:36.887,-187500.0224,-187500.0224,-187500.0224,-183430.3732,-187500.0224,-187500.0224,-187500.0224,-187500.0224,0.34,-0.066,0.924,192,0,0,0,0,0,0,0,0,0,0
 2023-06-27 18:22:36.887,-187500.0224,-187500.0224,-187500.0224,-182700.7452,-187500.0224,-187500.0224,-187500.0224,-187500.0224,0.34,-0.066,0.924,192,0,0,0,0,0,0,0,0,0,0
 2023-06-27 18:22:36.887,-187500.0224,-187500.0224,-187500.0224,-182697.7724,-187500.0224,-187500.0224,-187500.0224,-187500.0224,0.34,-0.066,0.924,192,0,0,0,0,0,0,0,0,0,0
 2023-06-27 18:22:36.887,-187500.0224,-187500.0224,-187500.0224,-183441.9514,-187500.0224,-187500.0224,-187500.0224,-187500.0224,0.34,-0.066,0.924,192,0,0,0,0,0,0,0,0,0,0
 2023-06-27 18:22:36.887,-187500.0224,-187500.0224,-187500.0224,-183866.3216,-187500.0224,-187500.0224,-187500.0224,-187500.0224,0.34,-0.066,0.924,192,0,0,0,0,0,0,0,0,0,0
 2023-06-27 18:22:36.887,-187500.0224,-187500.0224,-187500.0224,-183452.3002,-187500.0224,-187500.0224,-187500.0224,-187500.0224,0.336,-0.062,0.924,192,10,128,254,16,28,224,0,0,0,0
 2023-06-27 18:22:36.887,-187500.0224,-187500.0224,-187500.0224,-182714.268,-187500.0224,-187500.0224,-187500.0224,-187500.0224,0.336,-0.062,0.924,192,0,0,0,0,0,0,0,0,0,0
 2023-06-27 18:22:36.887,-187500.0224,-187500.0224,-187500.0224,-182697.4371,-187500.0224,-187500.0224,-187500.0224,-187500.0224,0.336,-0.062,0.924,192,0,0,0,0,0,0,0,0,0,0
 2023-06-27 18:22:36.887,-187500.0224,-187500.0224,-187500.0224,-183434.5977,-187500.0224,-187500.0224,-187500.0224,-187500.0224,0.336,-0.062,0.924,192,0,0,0,0,0,0,0,0,0,0
 2023-06-27 18:22:36.887,-187500.0224,-187500.0224,-187500.0224,-183866.6122,-187500.0224,-187500.0224,-187500.0224,-187500.0224,0.336,-0.062,0.924,192,0,0,0,0,0,0,0,0,0,0
 2023-06-27 18:22:36.887,-187500.0224,-187500.0224,-187500.0224,-183464.549,-187500.0224,-187500.0224,-187500.0224,-187500.0224,0.336,-0.062,0.924,192,0,0,0,0,0,0,0,0,0,0
 2023-06-27 18:22:36.887,-187500.0224,-187500.0224,-187500.0224,-182725.8238,-187500.0224,-187500.0224,-187500.0224,-187500.0224,0.336,-0.062,0.924,192,0,0,0,0,0,0,0,0,0,0
 2023-06-27 18:22:36.887,-187500.0224,-187500.0224,-187500.0224,-182697.3254,-187500.0224,-187500.0224,-187500.0224,-187500.0224,0.336,-0.062,0.924,192,0,0,0,0,0,0,0,0,0,0
 2023-06-27 18:22:36.887,-187500.0224,-187500.0224,-187500.0224,-183431.8037,-187500.0224,-187500.0224,-187500.0224,-187500.0224,0.336,-0.062,0.924,192,0,0,0,0,0,0,0,0,0,0
 2023-06-27 18:22:36.887,-187500.0224,-187500.0224,-187500.0224,-183875.9999,-187500.0224,-187500.0224,-187500.0224,-187500.0224,0.336,-0.062,0.924,192,0,0,0,0,0,0,0,0,0,0
 2023-06-27 18:22:36.887,-187500.0224,-187500.0224,-187500.0224,-183484.7773,-187500.0224,-187500.0224,-187500.0224,-187500.0224,0.338,-0.062,0.918,192,10,144,254,16,28,176,0,0,0,0
 2023-06-27 18:22:36.887,-187500.0224,-187500.0224,-187500.0224,-182738.5643,-187500.0224,-187500.0224,-187500.0224,-187500.0224,0.338,-0.062,0.918,192,0,0,0,0,0,0,0,0,0,0
 2023-06-27 18:22:36.887,-187500.0224,-187500.0224,-187500.0224,-182697.3254,-187500.0224,-187500.0224,-187500.0224,-187500.0224,0.338,-0.062,0.918,192,0,0,0,0,0,0,0,0,0,0
 2023-06-27 18:22:36.887,-187500.0224,-187500.0224,-187500.0224,-183425.7017,-187500.0224,-187500.0224,-187500.0224,-187500.0224,0.338,-0.062,0.918,192,0,0,0,0,0,0,0,0,0,0
 2023-06-27 18:22:36.887,-187500.0224,-187500.0224,-187500.0224,-183878.9727,-187500.0224,-187500.0224,-187500.0224,-187500.0224,0.338,-0.062,0.918,192,0,0,0,0,0,0,0,0,0,0
 2023-06-27 18:22:36.887,-187500.0224,-187500.0224,-187500.0224,-183500.8259,-187500.0224,-187500.0224,-187500.0224,-187500.0224,0.338,-0.062,0.918,192,0,0,0,0,0,0,0,0,0,0
 2023-06-27 18:22:36.887,-187500.0224,-187500.0224,-187500.0224,-182751.8636,-187500.0224,-187500.0224,-187500.0224,-187500.0224,0.338,-0.062,0.918,192,0,0,0,0,0,0,0,0,0,0
 2023-06-27 18:22:36.887,-187500.0224,-187500.0224,-187500.0224,-182694.5538,-187500.0224,-187500.0224,-187500.0224,-187500.0224,0.338,-0.062,0.918,192,0,0,0,0,0,0,0,0,0,0
 2023-06-27 18:22:36.887,-187500.0224,-187500.0224,-187500.0224,-183416.3586,-187500.0224,-187500.0224,-187500.0224,-187500.0224,0.338,-0.062,0.918,192,0,0,0,0,0,0,0,0,0,0
 2023-06-27 18:22:36.887,-187500.0224,-187500.0224,-187500.0224,-183880.7161,-187500.0224,-187500.0224,-187500.0224,-187500.0224,0.338,-0.062,0.918,192,0,0,0,0,0,0,0,0,0,0
 2023-06-27 18:22:36.887,-187500.0224,-187500.0224,-187500.0224,-183515.6898,-187500.0224,-187500.0224,-187500.0224,-187500.0224,0.336,-0.06,0.918,192,10,128,254,32,28,176,0,0,0,0
 2023-06-27 18:22:36.887,-187500.0224,-187500.0224,-187500.0224,-182759.8656,-187500.0224,-187500.0224,-187500.0224,-187500.0224,0.336,-0.06,0.918,192,0,0,0,0,0,0,0,0,0,0
 2023-06-27 18:22:36.887,-187500.0224,-187500.0224,-187500.0224,-182690.3293,-187500.0224,-187500.0224,-187500.0224,-187500.0224,0.336,-0.06,0.918,192,0,0,0,0,0,0,0,0,0,0
 2023-06-27 18:22:36.887,-187500.0224,-187500.0224,-187500.0224,-183406.1439,-187500.0224,-187500.0224,-187500.0224,-187500.0224,0.336,-0.06,0.918,192,0,0,0,0,0,0,0,0,0,0
 2023-06-27 18:22:36.887,-187500.0224,-187500.0224,-187500.0224,-183886.17,-187500.0224,-187500.0224,-187500.0224,-187500.0224,0.336,-0.06,0.918,192,0,0,0,0,0,0,0,0,0,0
 2023-06-27 18:22:36.887,-187500.0224,-187500.0224,-187500.0224,-183530.0396,-187500.0224,-187500.0224,-187500.0224,-187500.0224,0.336,-0.06,0.918,192,0,0,0,0,0,0,0,0,0,0
 2023-06-27 18:22:36.887,-187500.0224,-187500.0224,-187500.0224,-182771.4885,-187500.0224,-187500.0224,-187500.0224,-187500.0224,0.336,-0.06,0.918,192,0,0,0,0,0,0,0,0,0,0
 2023-06-27 18:22:36.887,-187500.0224,-187500.0224,-187500.0224,-182693.9726,-187500.0224,-187500.0224,-187500.0224,-187500.0224,0.336,-0.06,0.918,192,0,0,0,0,0,0,0,0,0,0
 2023-06-27 18:22:36.887,-187500.0224,-187500.0224,-187500.0224,-183407.8426,-187500.0224,-187500.0224,-187500.0224,-187500.0224,0.336,-0.06,0.918,192,0,0,0,0,0,0,0,0,0,0
 2023-06-27 18:22:36.887,-187500.0224,-187500.0224,-187500.0224,-183894.4848,-187500.0224,-187500.0224,-187500.0224,-187500.0224,0.336,-0.06,0.918,192,0,0,0,0,0,0,0,0,0,0
 2023-06-27 18:22:36.887,-187500.0224,-187500.0224,-187500.0224,-183547.3175,-187500.0224,-187500.0224,-187500.0224,-187500.0224,0.342,-0.062,0.922,192,10,176,254,16,28,208,0,0,0,0
 2023-06-27 18:22:36.887,-187500.0224,-187500.0224,-187500.0224,-182785.4807,-187500.0224,-187500.0224,-187500.0224,-187500.0224,0.342,-0.062,0.922,192,0,0,0,0,0,0,0,0,0,0
 2023-06-27 18:22:36.887,-187500.0224,-187500.0224,-187500.0224,-182695.269,-187500.0224,-187500.0224,-187500.0224,-187500.0224,0.342,-0.062,0.922,192,0,0,0,0,0,0,0,0,0,0
 2023-06-27 18:22:36.887,-187500.0224,-187500.0224,-187500.0224,-183403.5064,-187500.0224,-187500.0224,-187500.0224,-187500.0224,0.342,-0.062,0.922,192,0,0,0,0,0,0,0,0,0,0
 2023-06-27 18:22:36.887,-187500.0224,-187500.0224,-187500.0224,-183901.6597,-187500.0224,-187500.0224,-187500.0224,-187500.0224,0.342,-0.062,0.922,192,0,0,0,0,0,0,0,0,0,0
 2023-06-27 18:22:36.887,-187500.0224,-187500.0224,-187500.0224,-183565.8471,-187500.0224,-187500.0224,-187500.0224,-187500.0224,0.342,-0.062,0.922,192,0,0,0,0,0,0,0,0,0,0
 2023-06-27 18:22:36.887,-187500.0224,-187500.0224,-187500.0224,-182799.1599,-187500.0224,-187500.0224,-187500.0224,-187500.0224,0.342,-0.062,0.922,192,0,0,0,0,0,0,0,0,0,0
 2023-06-27 18:22:36.888,-187500.0224,-187500.0224,-187500.0224,-182693.9503,-187500.0224,-187500.0224,-187500.0224,-187500.0224,0.342,-0.062,0.922,192,0,0,0,0,0,0,0,0,0,0
 2023-06-27 18:22:36.888,-187500.0224,-187500.0224,-187500.0224,-183396.2644,-187500.0224,-187500.0224,-187500.0224,-187500.0224,0.342,-0.062,0.922,192,0,0,0,0,0,0,0,0,0,0
 2023-06-27 18:22:36.888,-187500.0224,-187500.0224,-187500.0224,-183906.7112,-187500.0224,-187500.0224,-187500.0224,-187500.0224,0.342,-0.062,0.922,192,0,0,0,0,0,0,0,0,0,0
 2023-06-27 18:22:36.888,-187500.0224,-187500.0224,-187500.0224,-183581.0016,-187500.0224,-187500.0224,-187500.0224,-187500.0224,0.338,-0.066,0.926,192,10,144,253,240,28,240,0,0,0,0
 2023-06-27 18:22:36.888,-187500.0224,-187500.0224,-187500.0224,-182810.2017,-187500.0224,-187500.0224,-187500.0224,-187500.0224,0.338,-0.066,0.926,192,0,0,0,0,0,0,0,0,0,0
 2023-06-27 18:22:36.888,-187500.0224,-187500.0224,-187500.0224,-182695.0902,-187500.0224,-187500.0224,-187500.0224,-187500.0224,0.338,-0.066,0.926,192,0,0,0,0,0,0,0,0,0,0
 2023-06-27 18:22:36.888,-187500.0224,-187500.0224,-187500.0224,-183395.4151,-187500.0224,-187500.0224,-187500.0224,-187500.0224,0.338,-0.066,0.926,192,0,0,0,0,0,0,0,0,0,0
 2023-06-27 18:22:36.888,-187500.0224,-187500.0224,-187500.0224,-183913.6403,-187500.0224,-187500.0224,-187500.0224,-187500.0224,0.338,-0.066,0.926,192,0,0,0,0,0,0,0,0,0,0
 2023-06-27 18:22:36.888,-187500.0224,-187500.0224,-187500.0224,-183600.8499,-187500.0224,-187500.0224,-187500.0224,-187500.0224,0.338,-0.066,0.926,192,0,0,0,0,0,0,0,0,0,0
 2023-06-27 18:22:36.888,-187500.0224,-187500.0224,-187500.0224,-182827.0996,-187500.0224,-187500.0224,-187500.0224,-187500.0224,0.338,-0.066,0.926,192,0,0,0,0,0,0,0,0,0,0
 2023-06-27 18:22:36.888,-187500.0224,-187500.0224,-187500.0224,-182693.682,-187500.0224,-187500.0224,-187500.0224,-187500.0224,0.338,-0.066,0.926,192,0,0,0,0,0,0,0,0,0,0
 2023-06-27 18:22:36.888,-187500.0224,-187500.0224,-187500.0224,-183383.4122,-187500.0224,-187500.0224,-187500.0224,-187500.0224,0.338,-0.066,0.926,192,0,0,0,0,0,0,0,0,0,0
 2023-06-27 18:22:36.888,-187500.0224,-187500.0224,-187500.0224,-183914.7578,-187500.0224,-187500.0224,-187500.0224,-187500.0224,0.338,-0.066,0.926,192,0,0,0,0,0,0,0,0,0,0
 2023-06-27 18:22:36.888,-187500.0224,-187500.0224,-187500.0224,-183615.2668,-187500.0224,-187500.0224,-187500.0224,-187500.0224,0.34,-0.066,0.926,192,10,160,253,240,28,240,0,0,0,0
 2023-06-27 18:22:36.888,-187500.0224,-187500.0224,-187500.0224,-182841.3377,-187500.0224,-187500.0224,-187500.0224,-187500.0224,0.34,-0.066,0.926,192,0,0,0,0,0,0,0,0,0,0
 2023-06-27 18:22:36.888,-187500.0224,-187500.0224,-187500.0224,-182696.3195,-187500.0224,-187500.0224,-187500.0224,-187500.0224,0.34,-0.066,0.926,192,0,0,0,0,0,0,0,0,0,0
 2023-06-27 18:22:36.888,-187500.0224,-187500.0224,-187500.0224,-183378.3607,-187500.0224,-187500.0224,-187500.0224,-187500.0224,0.34,-0.066,0.926,192,0,0,0,0,0,0,0,0,0,0
 2023-06-27 18:22:36.888,-187500.0224,-187500.0224,-187500.0224,-183919.787,-187500.0224,-187500.0224,-187500.0224,-187500.0224,0.34,-0.066,0.926,192,0,0,0,0,0,0,0,0,0,0
 2023-06-27 18:22:36.888,-187500.0224,-187500.0224,-187500.0224,-183630.3766,-187500.0224,-187500.0224,-187500.0224,-187500.0224,0.34,-0.066,0.926,192,0,0,0,0,0,0,0,0,0,0
 2023-06-27 18:22:36.888,-187500.0224,-187500.0224,-187500.0224,-182847.6632,-187500.0224,-187500.0224,-187500.0224,-187500.0224,0.34,-0.066,0.926,192,0,0,0,0,0,0,0,0,0,0
 2023-06-27 18:22:36.888,-187500.0224,-187500.0224,-187500.0224,-182694.7996,-187500.0224,-187500.0224,-187500.0224,-187500.0224,0.34,-0.066,0.926,192,0,0,0,0,0,0,0,0,0,0
 2023-06-27 18:22:36.888,-187500.0224,-187500.0224,-187500.0224,-183366.0896,-187500.0224,-187500.0224,-187500.0224,-187500.0224,0.34,-0.066,0.926,192,0,0,0,0,0,0,0,0,0,0
 2023-06-27 18:22:36.888,-187500.0224,-187500.0224,-187500.0224,-183915.786,-187500.0224,-187500.0224,-187500.0224,-187500.0224,0.34,-0.066,0.926,192,0,0,0,0,0,0,0,0,0,0
 2023-06-27 18:22:36.888,-187500.0224,-187500.0224,-187500.0224,-183641.0607,-187500.0224,-187500.0224,-187500.0224,-187500.0224,0.342,-0.07,0.928,192,10,176,253,208,29,0,0,0,0,0
 2023-06-27 18:22:36.888,-187500.0224,-187500.0224,-187500.0224,-182859.7779,-187500.0224,-187500.0224,-187500.0224,-187500.0224,0.342,-0.07,0.928,192,0,0,0,0,0,0,0,0,0,0
 2023-06-27 18:22:36.888,-187500.0224,-187500.0224,-187500.0224,-182692.7209,-187500.0224,-187500.0224,-187500.0224,-187500.0224,0.342,-0.07,0.928,192,0,0,0,0,0,0,0,0,0,0
 2023-06-27 18:22:36.888,-187500.0224,-187500.0224,-187500.0224,-183358.7582,-187500.0224,-187500.0224,-187500.0224,-187500.0224,0.342,-0.07,0.928,192,0,0,0,0,0,0,0,0,0,0
 2023-06-27 18:22:36.888,-187500.0224,-187500.0224,-187500.0224,-183919.6976,-187500.0224,-187500.0224,-187500.0224,-187500.0224,0.342,-0.07,0.928,192,0,0,0,0,0,0,0,0,0,0
 2023-06-27 18:22:36.888,-187500.0224,-187500.0224,-187500.0224,-183657.9586,-187500.0224,-187500.0224,-187500.0224,-187500.0224,0.342,-0.07,0.928,192,0,0,0,0,0,0,0,0,0,0
 2023-06-27 18:22:36.888,-187500.0224,-187500.0224,-187500.0224,-182873.9489,-187500.0224,-187500.0224,-187500.0224,-187500.0224,0.342,-0.07,0.928,192,0,0,0,0,0,0,0,0,0,0
 2023-06-27 18:22:36.888,-187500.0224,-187500.0224,-187500.0224,-182693.0115,-187500.0224,-187500.0224,-187500.0224,-187500.0224,0.342,-0.07,0.928,192,0,0,0,0,0,0,0,0,0,0
 2023-06-27 18:22:36.888,-187500.0224,-187500.0224,-187500.0224,-183353.5279,-187500.0224,-187500.0224,-187500.0224,-187500.0224,0.342,-0.07,0.928,192,0,0,0,0,0,0,0,0,0,0
 2023-06-27 18:22:36.888,-187500.0224,-187500.0224,-187500.0224,-183925.1738,-187500.0224,-187500.0224,-187500.0224,-187500.0224,0.342,-0.07,0.928,192,0,0,0,0,0,0,0,0,0,0
 2023-06-27 18:22:36.888,-187500.0224,-187500.0224,-187500.0224,-183673.0014,-187500.0224,-187500.0224,-187500.0224,-187500.0224,0.342,-0.066,0.922,192,10,176,253,240,28,208,0,0,0,0
 2023-06-27 18:22:36.888,-187500.0224,-187500.0224,-187500.0224,-182886.9352,-187500.0224,-187500.0224,-187500.0224,-187500.0224,0.342,-0.066,0.922,192,0,0,0,0,0,0,0,0,0,0
 2023-06-27 18:22:36.888,-187500.0224,-187500.0224,-187500.0224,-182693.3468,-187500.0224,-187500.0224,-187500.0224,-187500.0224,0.342,-0.066,0.922,192,0,0,0,0,0,0,0,0,0,0
 2023-06-27 18:22:36.888,-187500.0224,-187500.0224,-187500.0224,-183337.6134,-187500.0224,-187500.0224,-187500.0224,-187500.0224,0.342,-0.066,0.922,192,0,0,0,0,0,0,0,0,0,0
 2023-06-27 18:22:36.889,-187500.0224,-187500.0224,-187500.0224,-183922.4021,-187500.0224,-187500.0224,-187500.0224,-187500.0224,0.342,-0.066,0.922,192,0,0,0,0,0,0,0,0,0,0
 2023-06-27 18:22:36.889,-187500.0224,-187500.0224,-187500.0224,-183685.6525,-187500.0224,-187500.0224,-187500.0224,-187500.0224,0.342,-0.066,0.922,192,0,0,0,0,0,0,0,0,0,0
 2023-06-27 18:22:36.889,-187500.0224,-187500.0224,-187500.0224,-182899.8098,-187500.0224,-187500.0224,-187500.0224,-187500.0224,0.342,-0.066,0.922,192,0,0,0,0,0,0,0,0,0,0
 2023-06-27 18:22:36.889,-187500.0224,-187500.0224,-187500.0224,-182695.6043,-187500.0224,-187500.0224,-187500.0224,-187500.0224,0.342,-0.066,0.922,192,0,0,0,0,0,0,0,0,0,0
 2023-06-27 18:22:36.889,-187500.0224,-187500.0224,-187500.0224,-183336.0041,-187500.0224,-187500.0224,-187500.0224,-187500.0224,0.342,-0.066,0.922,192,0,0,0,0,0,0,0,0,0,0
 2023-06-27 18:22:36.889,-187500.0224,-187500.0224,-187500.0224,-183928.0124,-187500.0224,-187500.0224,-187500.0224,-187500.0224,0.342,-0.066,0.922,192,0,0,0,0,0,0,0,0,0,0
 2023-06-27 18:22:36.889,-187500.0224,-187500.0224,-187500.0224,-183701.7457,-187500.0224,-187500.0224,-187500.0224,-187500.0224,0.342,-0.066,0.922,192,0,0,0,0,0,0,0,0,0,0
 2023-06-27 18:22:36.889,-187500.0224,-187500.0224,-187500.0224,-182915.4113,-187500.0224,-187500.0224,-187500.0224,-187500.0224,0.34,-0.064,0.92,192,10,160,254,0,28,192,0,0,0,0
 2023-06-27 18:22:36.889,-187500.0224,-187500.0224,-187500.0224,-182694.3079,-187500.0224,-187500.0224,-187500.0224,-187500.0224,0.34,-0.064,0.92,192,0,0,0,0,0,0,0,0,0,0
 2023-06-27 18:22:36.889,-187500.0224,-187500.0224,-187500.0224,-183327.7116,-187500.0224,-187500.0224,-187500.0224,-187500.0224,0.34,-0.064,0.92,192,0,0,0,0,0,0,0,0,0,0
 2023-06-27 18:22:36.889,-187500.0224,-187500.0224,-187500.0224,-183930.8734,-187500.0224,-187500.0224,-187500.0224,-187500.0224,0.34,-0.064,0.92,192,0,0,0,0,0,0,0,0,0,0
 2023-06-27 18:22:36.889,-187500.0224,-187500.0224,-187500.0224,-183718.0625,-187500.0224,-187500.0224,-187500.0224,-187500.0224,0.34,-0.064,0.92,192,0,0,0,0,0,0,0,0,0,0
 2023-06-27 18:22:36.889,-187500.0224,-187500.0224,-187500.0224,-182928.9565,-187500.0224,-187500.0224,-187500.0224,-187500.0224,0.34,-0.064,0.92,192,0,0,0,0,0,0,0,0,0,0
 2023-06-27 18:22:36.889,-187500.0224,-187500.0224,-187500.0224,-182694.8667,-187500.0224,-187500.0224,-187500.0224,-187500.0224,0.34,-0.064,0.92,192,0,0,0,0,0,0,0,0,0,0
 2023-06-27 18:22:36.889,-187500.0224,-187500.0224,-187500.0224,-183316.871,-187500.0224,-187500.0224,-187500.0224,-187500.0224,0.34,-0.064,0.92,192,0,0,0,0,0,0,0,0,0,0
 2023-06-27 18:22:36.889,-187500.0224,-187500.0224,-187500.0224,-183929.5323,-187500.0224,-187500.0224,-187500.0224,-187500.0224,0.34,-0.064,0.92,192,0,0,0,0,0,0,0,0,0,0
 2023-06-27 18:22:37.367,-187500.0224,-187500.0224,-187500.0224,-183730.803,-187500.0224,-187500.0224,-187500.0224,-187500.0224,0.34,-0.064,0.92,192,0,0,0,0,0,0,0,0,0,0
 2023-06-27 18:22:37.367,-187500.0224,-187500.0224,-187500.0224,-182942.0099,-187500.0224,-187500.0224,-187500.0224,-187500.0224,0.346,-0.06,0.918,192,10,208,254,32,28,176,0,0,0,0
 2023-06-27 18:22:37.367,-187500.0224,-187500.0224,-187500.0224,-182698.6665,-187500.0224,-187500.0224,-187500.0224,-187500.0224,0.346,-0.06,0.918,192,0,0,0,0,0,0,0,0,0,0
 2023-06-27 18:22:37.367,-187500.0224,-187500.0224,-187500.0224,-183315.6417,-187500.0224,-187500.0224,-187500.0224,-187500.0224,0.346,-0.06,0.918,192,0,0,0,0,0,0,0,0,0,0
 2023-06-27 18:22:37.367,-187500.0224,-187500.0224,-187500.0224,-183935.4779,-187500.0224,-187500.0224,-187500.0224,-187500.0224,0.346,-0.06,0.918,192,0,0,0,0,0,0,0,0,0,0
 2023-06-27 18:22:37.367,-187500.0224,-187500.0224,-187500.0224,-183745.9128,-187500.0224,-187500.0224,-187500.0224,-187500.0224,0.346,-0.06,0.918,192,0,0,0,0,0,0,0,0,0,0
 2023-06-27 18:22:37.367,-187500.0224,-187500.0224,-187500.0224,-182957.9244,-187500.0224,-187500.0224,-187500.0224,-187500.0224,0.346,-0.06,0.918,192,0,0,0,0,0,0,0,0,0,0
 2023-06-27 18:22:37.367,-187500.0224,-187500.0224,-187500.0224,-182703.8297,-187500.0224,-187500.0224,-187500.0224,-187500.0224,0.346,-0.06,0.918,192,0,0,0,0,0,0,0,0,0,0
 2023-06-27 18:22:37.367,-187500.0224,-187500.0224,-187500.0224,-183310.0984,-187500.0224,-187500.0224,-187500.0224,-187500.0224,0.346,-0.06,0.918,192,0,0,0,0,0,0,0,0,0,0
 2023-06-27 18:22:37.367,-187500.0224,-187500.0224,-187500.0224,-183938.8977,-187500.0224,-187500.0224,-187500.0224,-187500.0224,0.346,-0.06,0.918,192,0,0,0,0,0,0,0,0,0,0
 2023-06-27 18:22:37.367,-187500.0224,-187500.0224,-187500.0224,-183761.4919,-187500.0224,-187500.0224,-187500.0224,-187500.0224,0.346,-0.06,0.918,192,0,0,0,0,0,0,0,0,0,0
 2023-06-27 18:22:37.367,-187500.0224,-187500.0224,-187500.0224,-182970.9554,-187500.0224,-187500.0224,-187500.0224,-187500.0224,0.348,-0.066,0.928,192,10,224,253,240,29,0,0,0,0,0
 2023-06-27 18:22:37.367,-187500.0224,-187500.0224,-187500.0224,-182701.3263,-187500.0224,-187500.0224,-187500.0224,-187500.0224,0.348,-0.066,0.928,192,0,0,0,0,0,0,0,0,0,0
 2023-06-27 18:22:37.367,-187500.0224,-187500.0224,-187500.0224,-183301.493,-187500.0224,-187500.0224,-187500.0224,-187500.0224,0.348,-0.066,0.928,192,0,0,0,0,0,0,0,0,0,0
 2023-06-27 18:22:37.367,-187500.0224,-187500.0224,-187500.0224,-183940.6859,-187500.0224,-187500.0224,-187500.0224,-187500.0224,0.348,-0.066,0.928,192,0,0,0,0,0,0,0,0,0,0
 2023-06-27 18:22:37.367,-187500.0224,-187500.0224,-187500.0224,-183776.2888,-187500.0224,-187500.0224,-187500.0224,-187500.0224,0.348,-0.066,0.928,192,0,0,0,0,0,0,0,0,0,0
 2023-06-27 18:22:37.368,-187500.0224,-187500.0224,-187500.0224,-182987.6969,-187500.0224,-187500.0224,-187500.0224,-187500.0224,0.348,-0.066,0.928,192,0,0,0,0,0,0,0,0,0,0
