 Timestamp (Formatted), EXG Channel 0, EXG Channel 1, EXG Channel 2, EXG Channel 3, EXG Channel 4, EXG Channel 5, EXG Channel 6, EXG Channel 7, Accel Channel 0, Accel Channel 1, Accel Channel 2, Other, Other.1, Other.2, Other.3, Other.4, Other.5, Other.6, Analog Channel 0, Analog Channel 1, Analog Channel 2, Other.7
 2023-06-27 18:19:54.636,-187500.0224,-187500.0224,-187500.0224,-172718.3891,-183843.2993,-178506.418,-187500.0224,-187500.0224,0.346,-0.068,0.926,192,0,0,0,0,0,0,0,0,0,0
 2023-06-27 18:19:54.636,-187500.0224,-187500.0224,-187500.0224,-172988.5769,-184417.0239,-179008.4158,-187500.0224,-187500.0224,0.346,-0.068,0.926,192,0,0,0,0,0,0,0,0,0,0
 2023-06-27 18:19:54.636,-187500.0224,-187500.0224,-187500.0224,-173766.6859,-185697.7565,-180438.0781,-187500.0224,-187500.0224,0.346,-0.068,0.926,192,0,0,0,0,0,0,0,0,0,0
 2023-06-27 18:19:54.636,-187500.0224,-187500.0224,-187500.0224,-173942.4823,-185852.8329,-180749.4826,-187500.0224,-187500.0224,0.342,-0.07,0.914,192,10,176,253,208,28,144,0,0,0,0
 2023-06-27 18:19:54.636,-187500.0224,-187500.0224,-187500.0224,-173303.0436,-184714.1233,-179569.1987,-187500.0224,-187500.0224,0.342,-0.07,0.914,192,0,0,0,0,0,0,0,0,0,0
 2023-06-27 18:19:54.636,-187500.0224,-187500.0224,-187500.0224,-172719.5514,-183843.5675,-178511.3577,-187500.0224,-187500.0224,0.342,-0.07,0.914,192,0,0,0,0,0,0,0,0,0,0
 2023-06-27 18:19:54.636,-187500.0224,-187500.0224,-187500.0224,-172975.3671,-184394.3369,-178987.4275,-187500.0224,-187500.0224,0.342,-0.07,0.914,192,0,0,0,0,0,0,0,0,0,0
 2023-06-27 18:19:54.636,-187500.0224,-187500.0224,-187500.0224,-173756.1359,-185681.1268,-180420.7555,-187500.0224,-187500.0224,0.342,-0.07,0.914,192,0,0,0,0,0,0,0,0,0,0
 2023-06-27 18:19:54.636,-187500.0224,-187500.0224,-187500.0224,-173947.2209,-185861.1254,-180758.7139,-187500.0224,-187500.0224,0.342,-0.07,0.914,192,0,0,0,0,0,0,0,0,0,0
 2023-06-27 18:19:54.636,-187500.0224,-187500.0224,-187500.0224,-173318.6005,-184739.0902,-179599.1948,-187500.0224,-187500.0224,0.342,-0.07,0.914,192,0,0,0,0,0,0,0,0,0,0
 2023-06-27 18:19:54.636,-187500.0224,-187500.0224,-187500.0224,-172730.9284,-183856.9562,-178530.7814,-187500.0224,-187500.0224,0.342,-0.07,0.914,192,0,0,0,0,0,0,0,0,0,0
 2023-06-27 18:19:54.636,-187500.0224,-187500.0224,-187500.0224,-172975.8141,-184388.2572,-178985.2818,-187500.0224,-187500.0224,0.342,-0.07,0.914,192,0,0,0,0,0,0,0,0,0,0
 2023-06-27 18:19:54.636,-187500.0224,-187500.0224,-187500.0224,-173753.5878,-185673.5719,-180415.0334,-187500.0224,-187500.0224,0.342,-0.07,0.914,192,0,0,0,0,0,0,0,0,0,0
 2023-06-27 18:19:54.636,-187500.0224,-187500.0224,-187500.0224,-173949.0091,-185865.3275,-180766.0229,-187500.0224,-187500.0224,0.344,-0.068,0.918,192,10,192,253,224,28,176,0,0,0,0
 2023-06-27 18:19:54.636,-187500.0224,-187500.0224,-187500.0224,-173329.6199,-184757.1504,-179623.2453,-187500.0224,-187500.0224,0.344,-0.068,0.918,192,0,0,0,0,0,0,0,0,0,0
 2023-06-27 18:19:54.636,-187500.0224,-187500.0224,-187500.0224,-172734.2812,-183859.4373,-178539.4092,-187500.0224,-187500.0224,0.344,-0.068,0.918,192,0,0,0,0,0,0,0,0,0,0
 2023-06-27 18:19:54.636,-187500.0224,-187500.0224,-187500.0224,-172964.3924,-184366.2854,-178966.0816,-187500.0224,-187500.0224,0.344,-0.068,0.918,192,0,0,0,0,0,0,0,0,0,0
 2023-06-27 18:19:54.636,-187500.0224,-187500.0224,-187500.0224,-173743.9542,-185657.5234,-180398.739,-187500.0224,-187500.0224,0.344,-0.068,0.918,192,0,0,0,0,0,0,0,0,0,0
 2023-06-27 18:19:54.636,-187500.0224,-187500.0224,-187500.0224,-173955.3346,-185875.0952,-180777.1988,-187500.0224,-187500.0224,0.344,-0.068,0.918,192,0,0,0,0,0,0,0,0,0,0
 2023-06-27 18:19:54.636,-187500.0224,-187500.0224,-187500.0224,-173348.8424,-184784.8889,-179656.4152,-187500.0224,-187500.0224,0.344,-0.068,0.918,192,0,0,0,0,0,0,0,0,0,0
 2023-06-27 18:19:54.636,-187500.0224,-187500.0224,-187500.0224,-172741.0761,-183865.8075,-178551.8591,-187500.0224,-187500.0224,0.344,-0.068,0.918,192,0,0,0,0,0,0,0,0,0,0
 2023-06-27 18:19:54.636,-187500.0224,-187500.0224,-187500.0224,-172955.9658,-184350.3039,-178953.2964,-187500.0224,-187500.0224,0.344,-0.068,0.918,192,0,0,0,0,0,0,0,0,0,0
 2023-06-27 18:19:54.636,-187500.0224,-187500.0224,-187500.0224,-173739.3273,-185648.4709,-180391.0053,-187500.0224,-187500.0224,0.344,-0.068,0.918,192,0,0,0,0,0,0,0,0,0,0
 2023-06-27 18:19:54.636,-187500.0224,-187500.0224,-187500.0224,-173963.2024,-185886.5393,-180791.5039,-187500.0224,-187500.0224,0.342,-0.068,0.92,192,10,176,253,224,28,192,0,0,0,0
 2023-06-27 18:19:54.636,-187500.0224,-187500.0224,-187500.0224,-173366.2991,-184810.7052,-179688.8253,-187500.0224,-187500.0224,0.342,-0.068,0.92,192,0,0,0,0,0,0,0,0,0,0
 2023-06-27 18:19:54.636,-187500.0224,-187500.0224,-187500.0224,-172748.318,-183873.5189,-178566.6559,-187500.0224,-187500.0224,0.342,-0.068,0.92,192,0,0,0,0,0,0,0,0,0,0
 2023-06-27 18:19:54.636,-187500.0224,-187500.0224,-187500.0224,-172948.9697,-184334.6354,-178942.0088,-187500.0224,-187500.0224,0.342,-0.068,0.92,192,0,0,0,0,0,0,0,0,0,0
 2023-06-27 18:19:54.636,-187500.0224,-187500.0224,-187500.0224,-173727.4362,-185629.4496,-180373.258,-187500.0224,-187500.0224,0.342,-0.068,0.92,192,0,0,0,0,0,0,0,0,0,0
 2023-06-27 18:19:54.636,-187500.0224,-187500.0224,-187500.0224,-173961.4366,-185886.9193,-180793.9402,-187500.0224,-187500.0224,0.342,-0.068,0.92,192,0,0,0,0,0,0,0,0,0,0
 2023-06-27 18:19:54.637,-187500.0224,-187500.0224,-187500.0224,-173374.3681,-184826.1502,-179709.6347,-187500.0224,-187500.0224,0.342,-0.068,0.92,192,0,0,0,0,0,0,0,0,0,0
 2023-06-27 18:19:54.637,-187500.0224,-187500.0224,-187500.0224,-172750.6873,-183875.4411,-178574.5014,-187500.0224,-187500.0224,0.342,-0.068,0.92,192,0,0,0,0,0,0,0,0,0,0
 2023-06-27 18:19:54.637,-187500.0224,-187500.0224,-187500.0224,-172943.6276,-184322.6548,-178933.5822,-187500.0224,-187500.0224,0.342,-0.068,0.92,192,0,0,0,0,0,0,0,0,0,0
 2023-06-27 18:19:54.637,-187500.0224,-187500.0224,-187500.0224,-173722.8765,-185620.8218,-180366.5078,-187500.0224,-187500.0224,0.342,-0.068,0.92,192,0,0,0,0,0,0,0,0,0,0
 2023-06-27 18:19:54.637,-187500.0224,-187500.0224,-187500.0224,-173968.2763,-185896.1282,-180806.5913,-187500.0224,-187500.0224,0.342,-0.07,0.922,192,10,176,253,208,28,208,0,0,0,0
 2023-06-27 18:19:54.637,-187500.0224,-187500.0224,-187500.0224,-173391.5342,-184851.5418,-179742.0224,-187500.0224,-187500.0224,0.342,-0.07,0.922,192,0,0,0,0,0,0,0,0,0,0
 2023-06-27 18:19:54.637,-187500.0224,-187500.0224,-187500.0224,-172758.7563,-183883.1972,-178589.7453,-187500.0224,-187500.0224,0.342,-0.07,0.922,192,0,0,0,0,0,0,0,0,0,0
 2023-06-27 18:19:54.637,-187500.0224,-187500.0224,-187500.0224,-172930.1271,-184295.6539,-178910.0905,-187500.0224,-187500.0224,0.342,-0.07,0.922,192,0,0,0,0,0,0,0,0,0,0
 2023-06-27 18:19:54.637,-187500.0224,-187500.0224,-187500.0224,-173705.8221,-185592.0551,-180336.0871,-187500.0224,-187500.0224,0.342,-0.07,0.922,192,0,0,0,0,0,0,0,0,0,0
 2023-06-27 18:19:54.637,-187500.0224,-187500.0224,-187500.0224,-173964.9011,-185893.8036,-180803.5291,-187500.0224,-187500.0224,0.342,-0.07,0.922,192,0,0,0,0,0,0,0,0,0,0
 2023-06-27 18:19:54.637,-187500.0224,-187500.0224,-187500.0224,-173402.0395,-184869.9149,-179763.4354,-187500.0224,-187500.0224,0.342,-0.07,0.922,192,0,0,0,0,0,0,0,0,0,0
 2023-06-27 18:19:54.637,-187500.0224,-187500.0224,-187500.0224,-172760.9244,-183885.5888,-178596.1155,-187500.0224,-187500.0224,0.342,-0.07,0.922,192,0,0,0,0,0,0,0,0,0,0
 2023-06-27 18:19:54.637,-187500.0224,-187500.0224,-187500.0224,-172920.6723,-184278.6442,-178894.8019,-187500.0224,-187500.0224,0.342,-0.07,0.922,192,0,0,0,0,0,0,0,0,0,0
 2023-06-27 18:19:54.637,-187500.0224,-187500.0224,-187500.0224,-173695.8532,-185576.2301,-180319.5691,-187500.0224,-187500.0224,0.342,-0.07,0.922,192,0,0,0,0,0,0,0,0,0,0
 2023-06-27 18:19:54.637,-187500.0224,-187500.0224,-187500.0224,-173967.8516,-185899.3692,-180809.6088,-187500.0224,-187500.0224,0.342,-0.064,0.92,192,10,176,254,0,28,192,0,0,0,0
 2023-06-27 18:19:54.637,-187500.0224,-187500.0224,-187500.0224,-173415.8082,-184891.6185,-179789.4081,-187500.0224,-187500.0224,0.342,-0.064,0.92,192,0,0,0,0,0,0,0,0,0,0
 2023-06-27 18:19:54.637,-187500.0224,-187500.0224,-187500.0224,-172765.7301,-183890.2156,-178605.6821,-187500.0224,-187500.0224,0.342,-0.064,0.92,192,0,0,0,0,0,0,0,0,0,0
 2023-06-27 18:19:54.637,-187500.0224,-187500.0224,-187500.0224,-172910.6364,-184260.0923,-178878.0381,-187500.0224,-187500.0224,0.342,-0.064,0.92,192,0,0,0,0,0,0,0,0,0,0
 2023-06-27 18:19:54.637,-187500.0224,-187500.0224,-187500.0224,-173684.7667,-185558.7063,-180301.1737,-187500.0224,-187500.0224,0.342,-0.064,0.92,192,0,0,0,0,0,0,0,0,0,0
 2023-06-27 18:19:54.637,-187500.0224,-187500.0224,-187500.0224,-173968.008,-185901.4926,-180812.2016,-187500.0224,-187500.0224,0.342,-0.064,0.92,192,0,0,0,0,0,0,0,0,0,0
 2023-06-27 18:19:54.637,-187500.0224,-187500.0224,-187500.0224,-173426.0229,-184909.634,-179811.2905,-187500.0224,-187500.0224,0.342,-0.064,0.92,192,0,0,0,0,0,0,0,0,0,0
 2023-06-27 18:19:54.637,-187500.0224,-187500.0224,-187500.0224,-172770.5804,-183895.9153,-178616.1651,-187500.0224,-187500.0224,0.342,-0.064,0.92,192,0,0,0,0,0,0,0,0,0,0
 2023-06-27 18:19:54.637,-187500.0224,-187500.0224,-187500.0224,-172903.1933,-184245.0496,-178865.2752,-187500.0224,-187500.0224,0.342,-0.064,0.92,192,0,0,0,0,0,0,0,0,0,0
 2023-06-27 18:19:54.637,-187500.0224,-187500.0224,-187500.0224,-173675.2225,-185542.8589,-180284.6557,-187500.0224,-187500.0224,0.342,-0.064,0.92,192,0,0,0,0,0,0,0,0,0,0
 2023-06-27 18:19:54.637,-187500.0224,-187500.0224,-187500.0224,-173967.8069,-185903.4596,-180814.5485,-187500.0224,-187500.0224,0.344,-0.066,0.92,192,10,192,253,240,28,192,0,0,0,0
 2023-06-27 18:19:54.637,-187500.0224,-187500.0224,-187500.0224,-173437.2882,-184928.5659,-179833.9999,-187500.0224,-187500.0224,0.344,-0.066,0.92,192,0,0,0,0,0,0,0,0,0,0
 2023-06-27 18:19:54.637,-187500.0224,-187500.0224,-187500.0224,-172776.4365,-183902.5314,-178627.475,-187500.0224,-187500.0224,0.344,-0.066,0.92,192,0,0,0,0,0,0,0,0,0,0
 2023-06-27 18:19:54.637,-187500.0224,-187500.0224,-187500.0224,-172895.4819,-184229.6939,-178852.1101,-187500.0224,-187500.0224,0.344,-0.066,0.92,192,0,0,0,0,0,0,0,0,0,0
 2023-06-27 18:19:54.637,-187500.0224,-187500.0224,-187500.0224,-173663.0408,-185523.8152,-180265.0979,-187500.0224,-187500.0224,0.344,-0.066,0.92,192,0,0,0,0,0,0,0,0,0,0
 2023-06-27 18:19:54.637,-187500.0224,-187500.0224,-187500.0224,-173967.6728,-185904.6889,-180816.0684,-187500.0224,-187500.0224,0.344,-0.066,0.92,192,0,0,0,0,0,0,0,0,0,0
 2023-06-27 18:19:54.637,-187500.0224,-187500.0224,-187500.0224,-173446.2736,-184945.8662,-179855.1893,-187500.0224,-187500.0224,0.344,-0.066,0.92,192,0,0,0,0,0,0,0,0,0,0
 2023-06-27 18:19:54.637,-187500.0224,-187500.0224,-187500.0224,-172779.454,-183907.8064,-178637.891,-187500.0224,-187500.0224,0.344,-0.066,0.92,192,0,0,0,0,0,0,0,0,0,0
 2023-06-27 18:19:54.637,-187500.0224,-187500.0224,-187500.0224,-172893.4479,-184225.6259,-178852.043,-187500.0224,-187500.0224,0.344,-0.066,0.92,192,0,0,0,0,0,0,0,0,0,0
 2023-06-27 18:19:54.637,-187500.0224,-187500.0224,-187500.0224,-173664.3819,-185523.0776,-180267.6013,-187500.0224,-187500.0224,0.344,-0.066,0.92,192,0,0,0,0,0,0,0,0,0,0
 2023-06-27 18:19:54.637,-187500.0224,-187500.0224,-187500.0224,-173977.6863,-185916.2001,-180831.5806,-187500.0224,-187500.0224,0.344,-0.064,0.922,192,10,192,254,0,28,208,0,0,0,0
 2023-06-27 18:19:54.637,-187500.0224,-187500.0224,-187500.0224,-173469.3406,-184976.1975,-179892.3379,-187500.0224,-187500.0224,0.344,-0.064,0.922,192,0,0,0,0,0,0,0,0,0,0
 2023-06-27 18:19:54.637,-187500.0224,-187500.0224,-187500.0224,-172790.9205,-183918.58,-178655.7947,-187500.0224,-187500.0224,0.344,-0.064,0.922,192,0,0,0,0,0,0,0,0,0,0
 2023-06-27 18:19:54.637,-187500.0224,-187500.0224,-187500.0224,-172883.3226,-184201.7542,-178830.9877,-187500.0224,-187500.0224,0.344,-0.064,0.922,192,0,0,0,0,0,0,0,0,0,0
 2023-06-27 18:19:54.637,-187500.0224,-187500.0224,-187500.0224,-173644.0195,-185490.6899,-180232.442,-187500.0224,-187500.0224,0.344,-0.064,0.922,192,0,0,0,0,0,0,0,0,0,0
 2023-06-27 18:19:54.637,-187500.0224,-187500.0224,-187500.0224,-173970.5338,-185910.411,-180824.2268,-187500.0224,-187500.0224,0.344,-0.064,0.922,192,0,0,0,0,0,0,0,0,0,0
 2023-06-27 18:19:54.637,-187500.0224,-187500.0224,-187500.0224,-173473.431,-184987.3286,-179905.6148,-187500.0224,-187500.0224,0.344,-0.064,0.922,192,0,0,0,0,0,0,0,0,0,0
 2023-06-27 18:19:54.637,-187500.0224,-187500.0224,-187500.0224,-172790.1829,-183917.9988,-178658.5216,-187500.0224,-187500.0224,0.344,-0.064,0.922,192,0,0,0,0,0,0,0,0,0,0
 2023-06-27 18:19:54.637,-187500.0224,-187500.0224,-187500.0224,-172871.7891,-184182.5764,-178812.5922,-187500.0224,-187500.0224,0.344,-0.064,0.922,192,0,0,0,0,0,0,0,0,0,0
 2023-06-27 18:19:54.637,-187500.0224,-187500.0224,-187500.0224,-173631.9943,-185472.2944,-180212.0796,-187500.0224,-187500.0224,0.344,-0.064,0.922,192,0,0,0,0,0,0,0,0,0,0
 2023-06-27 18:19:54.637,-187500.0224,-187500.0224,-187500.0224,-173975.63,-185918.3235,-180831.7817,-187500.0224,-187500.0224,0.348,-0.07,0.926,192,10,224,253,208,28,240,0,0,0,0
 2023-06-27 18:19:54.637,-187500.0224,-187500.0224,-187500.0224,-173487.0656,-185007.8252,-179929.0171,-187500.0224,-187500.0224,0.348,-0.07,0.926,192,0,0,0,0,0,0,0,0,0,0
 2023-06-27 18:19:54.637,-187500.0224,-187500.0224,-187500.0224,-172794.8097,-183924.3244,-178668.9375,-187500.0224,-187500.0224,0.348,-0.07,0.926,192,0,0,0,0,0,0,0,0,0,0
 2023-06-27 18:19:54.637,-187500.0224,-187500.0224,-187500.0224,-172862.7813,-184168.4725,-178801.0587,-187500.0224,-187500.0224,0.348,-0.07,0.926,192,0,0,0,0,0,0,0,0,0,0
 2023-06-27 18:19:54.637,-187500.0224,-187500.0224,-187500.0224,-173621.5113,-185456.0447,-180196.2099,-187500.0224,-187500.0224,0.348,-0.07,0.926,192,0,0,0,0,0,0,0,0,0,0
 2023-06-27 18:19:54.637,-187500.0224,-187500.0224,-187500.0224,-173971.0255,-185914.6802,-180829.0101,-187500.0224,-187500.0224,0.348,-0.07,0.926,192,0,0,0,0,0,0,0,0,0,0
 2023-06-27 18:19:54.637,-187500.0224,-187500.0224,-187500.0224,-173496.2521,-185025.7736,-179951.2124,-187500.0224,-187500.0224,0.348,-0.07,0.926,192,0,0,0,0,0,0,0,0,0,0
 2023-06-27 18:19:54.637,-187500.0224,-187500.0224,-187500.0224,-172803.6163,-183935.0979,-178685.1425,-187500.0224,-187500.0224,0.348,-0.07,0.926,192,0,0,0,0,0,0,0,0,0,0
 2023-06-27 18:19:54.637,-187500.0224,-187500.0224,-187500.0224,-172859.8309,-184158.5707,-178794.2414,-187500.0224,-187500.0224,0.348,-0.07,0.926,192,0,0,0,0,0,0,0,0,0,0
 2023-06-27 18:19:54.637,-187500.0224,-187500.0224,-187500.0224,-173612.3918,-185439.8397,-180179.9602,-187500.0224,-187500.0224,0.348,-0.07,0.926,192,0,0,0,0,0,0,0,0,0,0
 2023-06-27 18:19:54.637,-187500.0224,-187500.0224,-187500.0224,-173974.2442,-185919.1952,-180834.3075,-187500.0224,-187500.0224,0.348,-0.064,0.924,192,10,224,254,0,28,224,0,0,0,0
 2023-06-27 18:19:54.637,-187500.0224,-187500.0224,-187500.0224,-173512.0325,-185048.6842,-179978.1686,-187500.0224,-187500.0224,0.348,-0.064,0.924,192,0,0,0,0,0,0,0,0,0,0
 2023-06-27 18:19:54.637,-187500.0224,-187500.0224,-187500.0224,-172808.3325,-183940.6188,-178695.849,-187500.0224,-187500.0224,0.348,-0.064,0.924,192,0,0,0,0,0,0,0,0,0,0
 2023-06-27 18:19:54.637,-187500.0224,-187500.0224,-187500.0224,-172849.415,-184140.5328,-178778.774,-187500.0224,-187500.0224,0.348,-0.064,0.924,192,0,0,0,0,0,0,0,0,0,0
 2023-06-27 18:19:54.637,-187500.0224,-187500.0224,-187500.0224,-173598.7572,-185418.9408,-180158.3907,-187500.0224,-187500.0224,0.348,-0.064,0.924,192,0,0,0,0,0,0,0,0,0,0
 2023-06-27 18:19:54.637,-187500.0224,-187500.0224,-187500.0224,-173972.7243,-185918.927,-180834.1957,-187500.0224,-187500.0224,0.348,-0.064,0.924,192,0,0,0,0,0,0,0,0,0,0
 2023-06-27 18:19:54.637,-187500.0224,-187500.0224,-187500.0224,-173520.5932,-185064.3304,-179997.1899,-187500.0224,-187500.0224,0.348,-0.064,0.924,192,0,0,0,0,0,0,0,0,0,0
 2023-06-27 18:19:54.637,-187500.0224,-187500.0224,-187500.0224,-172812.557,-183945.3127,-178704.8121,-187500.0224,-187500.0224,0.348,-0.064,0.924,192,0,0,0,0,0,0,0,0,0,0
 2023-06-27 18:19:54.637,-187500.0224,-187500.0224,-187500.0224,-172842.0613,-184125.1548,-178765.0947,-187500.0224,-187500.0224,0.348,-0.064,0.924,192,0,0,0,0,0,0,0,0,0,0
 2023-06-27 18:19:55.115,-187500.0224,-187500.0224,-187500.0224,-173586.4861,-185398.4443,-180136.5307,-187500.0224,-187500.0224,0.348,-0.064,0.924,192,0,0,0,0,0,0,0,0,0,0
 2023-06-27 18:19:55.115,-187500.0224,-187500.0224,-187500.0224,-173967.1587,-185914.2331,-180828.9654,-187500.0224,-187500.0224,0.34,-0.064,0.926,192,10,160,254,0,28,240,0,0,0,0
 2023-06-27 18:19:55.115,-187500.0224,-187500.0224,-187500.0224,-173529.5339,-185080.6025,-180016.1666,-187500.0224,-187500.0224,0.34,-0.064,0.926,192,0,0,0,0,0,0,0,0,0,0
 2023-06-27 18:19:55.115,-187500.0224,-187500.0224,-187500.0224,-172819.6648,-183954.3651,-178717.9996,-187500.0224,-187500.0224,0.34,-0.064,0.926,192,0,0,0,0,0,0,0,0,0,0
 2023-06-27 18:19:55.115,-187500.0224,-187500.0224,-187500.0224,-172840.2061,-184117.4882,-178759.4397,-187500.0224,-187500.0224,0.34,-0.064,0.926,192,0,0,0,0,0,0,0,0,0,0
 2023-06-27 18:19:55.115,-187500.0224,-187500.0224,-187500.0224,-173580.9205,-185387.2684,-180124.6396,-187500.0224,-187500.0224,0.34,-0.064,0.926,192,0,0,0,0,0,0,0,0,0,0
 2023-06-27 18:19:55.115,-187500.0224,-187500.0224,-187500.0224,-173972.1208,-185921.2069,-180836.2521,-187500.0224,-187500.0224,0.34,-0.064,0.926,192,0,0,0,0,0,0,0,0,0,0
 2023-06-27 18:19:55.115,-187500.0224,-187500.0224,-187500.0224,-173544.5766,-185103.2448,-180042.3181,-187500.0224,-187500.0224,0.34,-0.064,0.926,192,0,0,0,0,0,0,0,0,0,0
 2023-06-27 18:19:55.115,-187500.0224,-187500.0224,-187500.0224,-172826.6386,-183962.4118,-178730.7848,-187500.0224,-187500.0224,0.34,-0.064,0.926,192,0,0,0,0,0,0,0,0,0,0
 2023-06-27 18:19:55.115,-187500.0224,-187500.0224,-187500.0224,-172830.6619,-184100.2997,-178744.4864,-187500.0224,-187500.0224,0.34,-0.064,0.926,192,0,0,0,0,0,0,0,0,0,0
 2023-06-27 18:19:55.115,-187500.0224,-187500.0224,-187500.0224,-173565.8555,-185363.9555,-180100.0974,-187500.0224,-187500.0224,0.34,-0.064,0.926,192,0,0,0,0,0,0,0,0,0,0
 2023-06-27 18:19:55.115,-187500.0224,-187500.0224,-187500.0224,-173971.6514,-185921.6763,-180836.4756,-187500.0224,-187500.0224,0.346,-0.064,0.924,192,10,208,254,0,28,224,0,0,0,0
 2023-06-27 18:19:55.115,-187500.0224,-187500.0224,-187500.0224,-173553.115,-185118.7346,-180060.6465,-187500.0224,-187500.0224,0.346,-0.064,0.924,192,0,0,0,0,0,0,0,0,0,0
 2023-06-27 18:19:55.115,-187500.0224,-187500.0224,-187500.0224,-172830.1031,-183967.4409,-178739.9043,-187500.0224,-187500.0224,0.346,-0.064,0.924,192,0,0,0,0,0,0,0,0,0,0
 2023-06-27 18:19:55.115,-187500.0224,-187500.0224,-187500.0224,-172822.5705,-184086.3745,-178732.5506,-187500.0224,-187500.0224,0.346,-0.064,0.924,192,0,0,0,0,0,0,0,0,0,0
 2023-06-27 18:19:55.115,-187500.0224,-187500.0224,-187500.0224,-173557.2947,-185349.181,-180084.4735,-187500.0224,-187500.0224,0.346,-0.064,0.924,192,0,0,0,0,0,0,0,0,0,0
 2023-06-27 18:19:55.115,-187500.0224,-187500.0224,-187500.0224,-173974.4006,-185926.616,-180841.5494,-187500.0224,-187500.0224,0.346,-0.064,0.924,192,0,0,0,0,0,0,0,0,0,0
 2023-06-27 18:19:55.115,-187500.0224,-187500.0224,-187500.0224,-173567.4201,-185140.6393,-180086.0381,-187500.0224,-187500.0224,0.346,-0.064,0.924,192,0,0,0,0,0,0,0,0,0,0
 2023-06-27 18:19:55.115,-187500.0224,-187500.0224,-187500.0224,-172838.8873,-183977.7898,-178754.9917,-187500.0224,-187500.0224,0.346,-0.064,0.924,192,0,0,0,0,0,0,0,0,0,0
 2023-06-27 18:19:55.115,-187500.0224,-187500.0224,-187500.0224,-172820.1566,-184077.0986,-178725.5768,-187500.0224,-187500.0224,0.346,-0.064,0.924,192,0,0,0,0,0,0,0,0,0,0
 2023-06-27 18:19:55.115,-187500.0224,-187500.0224,-187500.0224,-173548.3764,-185331.9255,-180066.3015,-187500.0224,-187500.0224,0.346,-0.064,0.924,192,0,0,0,0,0,0,0,0,0,0
 2023-06-27 18:19:55.115,-187500.0224,-187500.0224,-187500.0224,-173974.3112,-185926.9513,-180841.4377,-187500.0224,-187500.0224,0.342,-0.066,0.92,192,10,176,253,240,28,192,0,0,0,0
 2023-06-27 18:19:55.115,-187500.0224,-187500.0224,-187500.0224,-173578.1489,-185158.99,-180107.1605,-187500.0224,-187500.0224,0.342,-0.066,0.92,192,0,0,0,0,0,0,0,0,0,0
 2023-06-27 18:19:55.115,-187500.0224,-187500.0224,-187500.0224,-172845.2799,-183985.5682,-178766.9499,-187500.0224,-187500.0224,0.342,-0.066,0.92,192,0,0,0,0,0,0,0,0,0,0
 2023-06-27 18:19:55.115,-187500.0224,-187500.0224,-187500.0224,-172813.6969,-184063.464,-178713.8869,-187500.0224,-187500.0224,0.342,-0.066,0.92,192,0,0,0,0,0,0,0,0,0,0
 2023-06-27 18:19:55.115,-187500.0224,-187500.0224,-187500.0224,-173537.4464,-185313.7312,-180046.7438,-187500.0224,-187500.0224,0.342,-0.066,0.92,192,0,0,0,0,0,0,0,0,0,0
 2023-06-27 18:19:55.115,-187500.0224,-187500.0224,-187500.0224,-173973.2383,-185927.2642,-180841.2365,-187500.0224,-187500.0224,0.342,-0.066,0.92,192,0,0,0,0,0,0,0,0,0,0
 2023-06-27 18:19:55.115,-187500.0224,-187500.0224,-187500.0224,-173586.6649,-185175.1057,-180125.936,-187500.0224,-187500.0224,0.342,-0.066,0.92,192,0,0,0,0,0,0,0,0,0,0
 2023-06-27 18:19:55.115,-187500.0224,-187500.0224,-187500.0224,-172851.4043,-183994.0171,-178779.6681,-187500.0224,-187500.0224,0.342,-0.066,0.92,192,0,0,0,0,0,0,0,0,0,0
 2023-06-27 18:19:55.115,-187500.0224,-187500.0224,-187500.0224,-172807.4384,-184050.4106,-178702.9345,-187500.0224,-187500.0224,0.342,-0.066,0.92,192,0,0,0,0,0,0,0,0,0,0
 2023-06-27 18:19:55.115,-187500.0224,-187500.0224,-187500.0224,-173523.4318,-185291.0665,-180022.6486,-187500.0224,-187500.0224,0.342,-0.066,0.92,192,0,0,0,0,0,0,0,0,0,0
 2023-06-27 18:19:55.115,-187500.0224,-187500.0224,-187500.0224,-173974.8253,-185930.1699,-180843.2929,-187500.0224,-187500.0224,0.342,-0.068,0.918,192,10,176,253,224,28,176,0,0,0,0
 2023-06-27 18:19:55.115,-187500.0224,-187500.0224,-187500.0224,-173601.5959,-185198.3068,-180151.9087,-187500.0224,-187500.0224,0.342,-0.068,0.918,192,0,0,0,0,0,0,0,0,0,0
 2023-06-27 18:19:55.115,-187500.0224,-187500.0224,-187500.0224,-172860.9708,-184005.9977,-178796.3201,-187500.0224,-187500.0224,0.342,-0.068,0.918,192,0,0,0,0,0,0,0,0,0,0
 2023-06-27 18:19:55.115,-187500.0224,-187500.0224,-187500.0224,-172800.7552,-184038.4524,-178693.7033,-187500.0224,-187500.0224,0.342,-0.068,0.918,192,0,0,0,0,0,0,0,0,0,0
 2023-06-27 18:19:55.115,-187500.0224,-187500.0224,-187500.0224,-173512.8371,-185273.811,-180005.1025,-187500.0224,-187500.0224,0.342,-0.068,0.918,192,0,0,0,0,0,0,0,0,0,0
 2023-06-27 18:19:55.115,-187500.0224,-187500.0224,-187500.0224,-173975.8535,-185932.7851,-180846.668,-187500.0224,-187500.0224,0.342,-0.068,0.918,192,0,0,0,0,0,0,0,0,0,0
 2023-06-27 18:19:55.115,-187500.0224,-187500.0224,-187500.0224,-173612.8612,-185217.0822,-180174.6404,-187500.0224,-187500.0224,0.342,-0.068,0.918,192,0,0,0,0,0,0,0,0,0,0
 2023-06-27 18:19:55.115,-187500.0224,-187500.0224,-187500.0224,-172866.4023,-184013.6867,-178809.3735,-187500.0224,-187500.0224,0.342,-0.068,0.918,192,0,0,0,0,0,0,0,0,0,0
 2023-06-27 18:19:55.115,-187500.0224,-187500.0224,-187500.0224,-172797.246,-184028.7517,-178687.2883,-187500.0224,-187500.0224,0.342,-0.068,0.918,192,0,0,0,0,0,0,0,0,0,0
 2023-06-27 18:19:55.115,-187500.0224,-187500.0224,-187500.0224,-173501.1919,-185254.5885,-179986.1705,-187500.0224,-187500.0224,0.342,-0.068,0.918,192,0,0,0,0,0,0,0,0,0,0
 2023-06-27 18:19:55.115,-187500.0224,-187500.0224,-187500.0224,-173975.1159,-185932.3604,-180846.8468,-187500.0224,-187500.0224,0.342,-0.068,0.918,192,0,0,0,0,0,0,0,0,0,0
 2023-06-27 18:19:55.115,-187500.0224,-187500.0224,-187500.0224,-173626.3393,-185237.9811,-180199.2497,-187500.0224,-187500.0224,0.342,-0.072,0.918,192,10,176,253,192,28,176,0,0,0,0
 2023-06-27 18:19:55.115,-187500.0224,-187500.0224,-187500.0224,-172877.3323,-184026.8518,-178827.8361,-187500.0224,-187500.0224,0.342,-0.072,0.918,192,0,0,0,0,0,0,0,0,0,0
 2023-06-27 18:19:55.115,-187500.0224,-187500.0224,-187500.0224,-172792.8874,-184017.5088,-178678.7499,-187500.0224,-187500.0224,0.342,-0.072,0.918,192,0,0,0,0,0,0,0,0,0,0
 2023-06-27 18:19:55.115,-187500.0224,-187500.0224,-187500.0224,-173491.2677,-185235.2095,-179965.5399,-187500.0224,-187500.0224,0.342,-0.072,0.918,192,0,0,0,0,0,0,0,0,0,0
 2023-06-27 18:19:55.115,-187500.0224,-187500.0224,-187500.0224,-173973.3948,-185930.9746,-180844.634,-187500.0224,-187500.0224,0.342,-0.072,0.918,192,0,0,0,0,0,0,0,0,0,0
 2023-06-27 18:19:55.115,-187500.0224,-187500.0224,-187500.0224,-173634.3188,-185253.4709,-180217.2205,-187500.0224,-187500.0224,0.342,-0.072,0.918,192,0,0,0,0,0,0,0,0,0,0
 2023-06-27 18:19:55.115,-187500.0224,-187500.0224,-187500.0224,-172881.378,-184033.3562,-178838.7437,-187500.0224,-187500.0224,0.342,-0.072,0.918,192,0,0,0,0,0,0,0,0,0,0
 2023-06-27 18:19:55.115,-187500.0224,-187500.0224,-187500.0224,-172786.4501,-184005.4389,-178669.161,-187500.0224,-187500.0224,0.342,-0.072,0.918,192,0,0,0,0,0,0,0,0,0,0
 2023-06-27 18:19:55.115,-187500.0224,-187500.0224,-187500.0224,-173475.9344,-185212.1872,-179941.7353,-187500.0224,-187500.0224,0.342,-0.072,0.918,192,0,0,0,0,0,0,0,0,0,0
 2023-06-27 18:19:55.115,-187500.0224,-187500.0224,-187500.0224,-173969.5727,-185927.5324,-180840.8565,-187500.0224,-187500.0224,0.342,-0.072,0.918,192,0,0,0,0,0,0,0,0,0,0
 2023-06-27 18:19:55.116,-187500.0224,-187500.0224,-187500.0224,-173646.9923,-185273.5874,-180240.131,-187500.0224,-187500.0224,0.338,-0.074,0.918,192,10,144,253,176,28,176,0,0,0,0
 2023-06-27 18:19:55.116,-187500.0224,-187500.0224,-187500.0224,-172889.7822,-184044.018,-178853.8759,-187500.0224,-187500.0224,0.338,-0.074,0.918,192,0,0,0,0,0,0,0,0,0,0
 2023-06-27 18:19:55.116,-187500.0224,-187500.0224,-187500.0224,-172778.0682,-183990.1056,-178655.8618,-187500.0224,-187500.0224,0.338,-0.074,0.918,192,0,0,0,0,0,0,0,0,0,0
 2023-06-27 18:19:55.116,-187500.0224,-187500.0224,-187500.0224,-173460.9811,-185187.8238,-179915.8072,-187500.0224,-187500.0224,0.338,-0.074,0.918,192,0,0,0,0,0,0,0,0,0,0
 2023-06-27 18:19:55.116,-187500.0224,-187500.0224,-187500.0224,-173966.0411,-185924.202,-180836.3191,-187500.0224,-187500.0224,0.338,-0.074,0.918,192,0,0,0,0,0,0,0,0,0,0
 2023-06-27 18:19:55.116,-187500.0224,-187500.0224,-187500.0224,-173655.7095,-185289.4348,-180258.0348,-187500.0224,-187500.0224,0.338,-0.074,0.918,192,0,0,0,0,0,0,0,0,0,0
 2023-06-27 18:19:55.116,-187500.0224,-187500.0224,-187500.0224,-172898.0524,-184055.3056,-178869.3209,-187500.0224,-187500.0224,0.338,-0.074,0.918,192,0,0,0,0,0,0,0,0,0,0
 2023-06-27 18:19:55.116,-187500.0224,-187500.0224,-187500.0224,-172777.2636,-183984.2941,-178652.5537,-187500.0224,-187500.0224,0.338,-0.074,0.918,192,0,0,0,0,0,0,0,0,0,0
 2023-06-27 18:19:55.116,-187500.0224,-187500.0224,-187500.0224,-173453.0909,-185171.5517,-179898.4846,-187500.0224,-187500.0224,0.338,-0.074,0.918,192,0,0,0,0,0,0,0,0,0,0
 2023-06-27 18:19:55.116,-187500.0224,-187500.0224,-187500.0224,-173971.6067,-185930.3487,-180841.7506,-187500.0224,-187500.0224,0.338,-0.074,0.918,192,0,0,0,0,0,0,0,0,0,0
 2023-06-27 18:19:55.116,-187500.0224,-187500.0224,-187500.0224,-173673.3226,-185315.6534,-180286.9133,-187500.0224,-187500.0224,0.34,-0.068,0.92,192,10,160,253,224,28,192,0,0,0,0
 2023-06-27 18:19:55.116,-187500.0224,-187500.0224,-187500.0224,-172909.5635,-184070.6613,-178889.5939,-187500.0224,-187500.0224,0.34,-0.068,0.92,192,0,0,0,0,0,0,0,0,0,0
 2023-06-27 18:19:55.116,-187500.0224,-187500.0224,-187500.0224,-172769.731,-183971.4195,-178642.6742,-187500.0224,-187500.0224,0.34,-0.068,0.92,192,0,0,0,0,0,0,0,0,0,0
 2023-06-27 18:19:55.116,-187500.0224,-187500.0224,-187500.0224,-173439.881,-185150.4964,-179877.0493,-187500.0224,-187500.0224,0.34,-0.068,0.92,192,0,0,0,0,0,0,0,0,0,0
 2023-06-27 18:19:55.116,-187500.0224,-187500.0224,-187500.0224,-173969.148,-185928.8065,-180840.3648,-187500.0224,-187500.0224,0.34,-0.068,0.92,192,0,0,0,0,0,0,0,0,0,0
 2023-06-27 18:19:55.116,-187500.0224,-187500.0224,-187500.0224,-173684.4762,-185334.8759,-180309.712,-187500.0224,-187500.0224,0.34,-0.068,0.92,192,0,0,0,0,0,0,0,0,0,0
 2023-06-27 18:19:55.116,-187500.0224,-187500.0224,-187500.0224,-172917.1631,-184081.4124,-178906.1342,-187500.0224,-187500.0224,0.34,-0.068,0.92,192,0,0,0,0,0,0,0,0,0,0
 2023-06-27 18:19:55.116,-187500.0224,-187500.0224,-187500.0224,-172766.6241,-183962.3223,-178637.2651,-187500.0224,-187500.0224,0.34,-0.068,0.92,192,0,0,0,0,0,0,0,0,0,0
 2023-06-27 18:19:55.116,-187500.0224,-187500.0224,-187500.0224,-173427.4534,-185129.3516,-179855.9046,-187500.0224,-187500.0224,0.34,-0.068,0.92,192,0,0,0,0,0,0,0,0,0,0
 2023-06-27 18:19:55.116,-187500.0224,-187500.0224,-187500.0224,-173967.0469,-185926.6384,-180838.3978,-187500.0224,-187500.0224,0.34,-0.068,0.92,192,0,0,0,0,0,0,0,0,0,0
 2023-06-27 18:19:55.116,-187500.0224,-187500.0224,-187500.0224,-173695.2273,-185352.7573,-180330.9462,-187500.0224,-187500.0224,0.334,-0.07,0.92,192,10,112,253,208,28,192,0,0,0,0
 2023-06-27 18:19:55.116,-187500.0224,-187500.0224,-187500.0224,-172928.0037,-184096.0975,-178926.1838,-187500.0224,-187500.0224,0.334,-0.07,0.92,192,0,0,0,0,0,0,0,0,0,0
 2023-06-27 18:19:55.116,-187500.0224,-187500.0224,-187500.0224,-172768.3676,-183960.5789,-178639.6344,-187500.0224,-187500.0224,0.334,-0.07,0.92,192,0,0,0,0,0,0,0,0,0,0
 2023-06-27 18:19:55.116,-187500.0224,-187500.0224,-187500.0224,-173419.4962,-185115.2477,-179843.5888,-187500.0224,-187500.0224,0.334,-0.07,0.92,192,0,0,0,0,0,0,0,0,0,0
 2023-06-27 18:19:55.116,-187500.0224,-187500.0224,-187500.0224,-173967.0693,-185927.063,-180840.8342,-187500.0224,-187500.0224,0.334,-0.07,0.92,192,0,0,0,0,0,0,0,0,0,0
 2023-06-27 18:19:55.116,-187500.0224,-187500.0224,-187500.0224,-173707.8561,-185373.2986,-180356.6954,-187500.0224,-187500.0224,0.334,-0.07,0.92,192,0,0,0,0,0,0,0,0,0,0
 2023-06-27 18:19:55.116,-187500.0224,-187500.0224,-187500.0224,-172938.1738,-184108.9945,-178946.4791,-187500.0224,-187500.0224,0.334,-0.07,0.92,192,0,0,0,0,0,0,0,0,0,0
 2023-06-27 18:19:55.116,-187500.0224,-187500.0224,-187500.0224,-172762.4891,-183947.0114,-178630.716,-187500.0224,-187500.0224,0.334,-0.07,0.92,192,0,0,0,0,0,0,0,0,0,0
 2023-06-27 18:19:55.116,-187500.0224,-187500.0224,-187500.0224,-173405.1017,-185088.3138,-179816.2973,-187500.0224,-187500.0224,0.334,-0.07,0.92,192,0,0,0,0,0,0,0,0,0,0
 2023-06-27 18:19:55.116,-187500.0224,-187500.0224,-187500.0224,-173964.767,-185923.5091,-180836.7215,-187500.0224,-187500.0224,0.334,-0.07,0.92,192,0,0,0,0,0,0,0,0,0,0
 2023-06-27 18:19:55.116,-187500.0224,-187500.0224,-187500.0224,-173716.3274,-185388.9224,-180375.0015,-187500.0224,-187500.0224,0.338,-0.068,0.918,192,10,144,253,224,28,176,0,0,0,0
 2023-06-27 18:19:55.116,-187500.0224,-187500.0224,-187500.0224,-172944.7675,-184119.4104,-178962.0807,-187500.0224,-187500.0224,0.338,-0.068,0.918,192,0,0,0,0,0,0,0,0,0,0
 2023-06-27 18:19:55.116,-187500.0224,-187500.0224,-187500.0224,-172756.2082,-183935.4779,-178622.7588,-187500.0224,-187500.0224,0.338,-0.068,0.918,192,0,0,0,0,0,0,0,0,0,0
 2023-06-27 18:19:55.116,-187500.0224,-187500.0224,-187500.0224,-173390.7295,-185065.2021,-179793.342,-187500.0224,-187500.0224,0.338,-0.068,0.918,192,0,0,0,0,0,0,0,0,0,0
 2023-06-27 18:19:55.116,-187500.0224,-187500.0224,-187500.0224,-173960.1402,-185918.6811,-180832.1394,-187500.0224,-187500.0224,0.338,-0.068,0.918,192,0,0,0,0,0,0,0,0,0,0
 2023-06-27 18:19:55.116,-187500.0224,-187500.0224,-187500.0224,-173728.7997,-185408.8378,-180398.2473,-187500.0224,-187500.0224,0.338,-0.068,0.918,192,0,0,0,0,0,0,0,0,0,0
 2023-06-27 18:19:55.116,-187500.0224,-187500.0224,-187500.0224,-172960.7714,-184139.0352,-178987.3828,-187500.0224,-187500.0224,0.338,-0.068,0.918,192,0,0,0,0,0,0,0,0,0,0
 2023-06-27 18:19:55.116,-187500.0224,-187500.0224,-187500.0224,-172759.0245,-183933.2651,-178624.5023,-187500.0224,-187500.0224,0.338,-0.068,0.918,192,0,0,0,0,0,0,0,0,0,0
 2023-06-27 18:19:55.116,-187500.0224,-187500.0224,-187500.0224,-173383.0852,-185048.3713,-179776.8688,-187500.0224,-187500.0224,0.338,-0.068,0.918,192,0,0,0,0,0,0,0,0,0,0
 2023-06-27 18:19:55.116,-187500.0224,-187500.0224,-187500.0224,-173960.699,-185918.7035,-180832.2735,-187500.0224,-187500.0224,0.338,-0.068,0.918,192,0,0,0,0,0,0,0,0,0,0
 2023-06-27 18:19:55.116,-187500.0224,-187500.0224,-187500.0224,-173741.786,-185428.7756,-180421.3813,-187500.0224,-187500.0224,0.336,-0.068,0.924,192,10,128,253,224,28,224,0,0,0,0
 2023-06-27 18:19:55.116,-187500.0224,-187500.0224,-187500.0224,-172970.4497,-184152.8039,-179006.583,-187500.0224,-187500.0224,0.336,-0.068,0.924,192,0,0,0,0,0,0,0,0,0,0
 2023-06-27 18:19:55.116,-187500.0224,-187500.0224,-187500.0224,-172757.974,-183927.9007,-178623.1164,-187500.0224,-187500.0224,0.336,-0.068,0.924,192,0,0,0,0,0,0,0,0,0,0
 2023-06-27 18:19:55.116,-187500.0224,-187500.0224,-187500.0224,-173374.3681,-185031.5627,-179760.8873,-187500.0224,-187500.0224,0.336,-0.068,0.924,192,0,0,0,0,0,0,0,0,0,0
 2023-06-27 18:19:55.116,-187500.0224,-187500.0224,-187500.0224,-173957.1674,-185914.5684,-180828.876,-187500.0224,-187500.0224,0.336,-0.068,0.924,192,0,0,0,0,0,0,0,0,0,0
 2023-06-27 18:19:55.116,-187500.0224,-187500.0224,-187500.0224,-173748.9162,-185442.7454,-180438.8157,-187500.0224,-187500.0224,0.336,-0.068,0.924,192,0,0,0,0,0,0,0,0,0,0
 2023-06-27 18:19:55.116,-187500.0224,-187500.0224,-187500.0224,-172977.3787,-184163.1975,-179022.6539,-187500.0224,-187500.0224,0.336,-0.068,0.924,192,0,0,0,0,0,0,0,0,0,0
 2023-06-27 18:19:55.116,-187500.0224,-187500.0224,-187500.0224,-172751.2685,-183916.5236,-178615.6733,-187500.0224,-187500.0224,0.336,-0.068,0.924,192,0,0,0,0,0,0,0,0,0,0
 2023-06-27 18:19:55.116,-187500.0224,-187500.0224,-187500.0224,-173356.6431,-185005.1653,-179734.9369,-187500.0224,-187500.0224,0.336,-0.068,0.924,192,0,0,0,0,0,0,0,0,0,0
 2023-06-27 18:19:55.116,-187500.0224,-187500.0224,-187500.0224,-173954.9993,-185911.9533,-180826.8196,-187500.0224,-187500.0224,0.336,-0.068,0.924,192,0,0,0,0,0,0,0,0,0,0
 2023-06-27 18:19:55.116,-187500.0224,-187500.0224,-187500.0224,-173760.6286,-185461.9456,-180461.8157,-187500.0224,-187500.0224,0.34,-0.062,0.922,192,10,160,254,16,28,208,0,0,0,0
 2023-06-27 18:19:55.116,-187500.0224,-187500.0224,-187500.0224,-172987.4594,-184177.5696,-179043.2622,-187500.0224,-187500.0224,0.34,-0.062,0.922,192,0,0,0,0,0,0,0,0,0,0
 2023-06-27 18:19:55.116,-187500.0224,-187500.0224,-187500.0224,-172751.492,-183912.0309,-178615.7627,-187500.0224,-187500.0224,0.34,-0.062,0.922,192,0,0,0,0,0,0,0,0,0,0
 2023-06-27 18:19:55.116,-187500.0224,-187500.0224,-187500.0224,-173347.6801,-184987.0828,-179717.9719,-187500.0224,-187500.0224,0.34,-0.062,0.922,192,0,0,0,0,0,0,0,0,0,0
 2023-06-27 18:19:55.116,-187500.0224,-187500.0224,-187500.0224,-173954.5746,-185910.2769,-180825.7691,-187500.0224,-187500.0224,0.34,-0.062,0.922,192,0,0,0,0,0,0,0,0,0,0
 2023-06-27 18:19:55.116,-187500.0224,-187500.0224,-187500.0224,-173773.369,-185481.5481,-180484.905,-187500.0224,-187500.0224,0.34,-0.062,0.922,192,0,0,0,0,0,0,0,0,0,0
 2023-06-27 18:19:55.116,-187500.0224,-187500.0224,-187500.0224,-172998.8811,-184193.2606,-179065.1893,-187500.0224,-187500.0224,0.34,-0.062,0.922,192,0,0,0,0,0,0,0,0,0,0
 2023-06-27 18:19:55.116,-187500.0224,-187500.0224,-187500.0224,-172746.4405,-183901.9503,-178610.1524,-187500.0224,-187500.0224,0.34,-0.062,0.922,192,0,0,0,0,0,0,0,0,0,0
 2023-06-27 18:19:55.116,-187500.0224,-187500.0224,-187500.0224,-173334.7384,-184963.8593,-179695.3296,-187500.0224,-187500.0224,0.34,-0.062,0.922,192,0,0,0,0,0,0,0,0,0,0
 2023-06-27 18:19:55.116,-187500.0224,-187500.0224,-187500.0224,-173951.5572,-185906.0524,-180821.8128,-187500.0224,-187500.0224,0.34,-0.062,0.922,192,0,0,0,0,0,0,0,0,0,0
 2023-06-27 18:19:55.116,-187500.0224,-187500.0224,-187500.0224,-173782.9356,-185497.7978,-180504.5075,-187500.0224,-187500.0224,0.34,-0.056,0.92,192,10,160,254,64,28,192,0,0,0,0
 2023-06-27 18:19:55.116,-187500.0224,-187500.0224,-187500.0224,-173012.7392,-184211.3655,-179089.3738,-187500.0224,-187500.0224,0.34,-0.056,0.92,192,0,0,0,0,0,0,0,0,0,0
 2023-06-27 18:19:55.116,-187500.0224,-187500.0224,-187500.0224,-172746.9993,-183897.7258,-178610.5101,-187500.0224,-187500.0224,0.34,-0.056,0.92,192,0,0,0,0,0,0,0,0,0,0
 2023-06-27 18:19:55.116,-187500.0224,-187500.0224,-187500.0224,-173325.0825,-184944.5698,-179676.9341,-187500.0224,-187500.0224,0.34,-0.056,0.92,192,0,0,0,0,0,0,0,0,0,0
 2023-06-27 18:19:55.116,-187500.0224,-187500.0224,-187500.0224,-173950.9313,-185903.7725,-180819.9353,-187500.0224,-187500.0224,0.34,-0.056,0.92,192,0,0,0,0,0,0,0,0,0,0
 2023-06-27 18:19:55.116,-187500.0224,-187500.0224,-187500.0224,-173793.1727,-185514.4498,-180524.3782,-187500.0224,-187500.0224,0.34,-0.056,0.92,192,0,0,0,0,0,0,0,0,0,0
 2023-06-27 18:19:55.116,-187500.0224,-187500.0224,-187500.0224,-173021.8587,-184225.1789,-179109.0881,-187500.0224,-187500.0224,0.34,-0.056,0.92,192,0,0,0,0,0,0,0,0,0,0
 2023-06-27 18:19:55.116,-187500.0224,-187500.0224,-187500.0224,-172745.457,-183892.0932,-178609.2807,-187500.0224,-187500.0224,0.34,-0.056,0.92,192,0,0,0,0,0,0,0,0,0,0
 2023-06-27 18:19:55.116,-187500.0224,-187500.0224,-187500.0224,-173313.4819,-184923.9615,-179657.0858,-187500.0224,-187500.0224,0.34,-0.056,0.92,192,0,0,0,0,0,0,0,0,0,0
 2023-06-27 18:19:55.595,-187500.0224,-187500.0224,-187500.0224,-173947.9809,-185899.1457,-180815.3532,-187500.0224,-187500.0224,0.34,-0.056,0.92,192,0,0,0,0,0,0,0,0,0,0
 2023-06-27 18:19:55.596,-187500.0224,-187500.0224,-187500.0224,-173806.7626,-185534.477,-180547.4005,-187500.0224,-187500.0224,0.336,-0.056,0.92,192,10,128,254,64,28,192,0,0,0,0
 2023-06-27 18:19:55.596,-187500.0224,-187500.0224,-187500.0224,-173034.9121,-184242.6132,-179132.4233,-187500.0224,-187500.0224,0.336,-0.056,0.92,192,0,0,0,0,0,0,0,0,0,0
 2023-06-27 18:19:55.596,-187500.0224,-187500.0224,-187500.0224,-172745.5241,-183887.4887,-178609.1243,-187500.0224,-187500.0224,0.336,-0.056,0.92,192,0,0,0,0,0,0,0,0,0,0
 2023-06-27 18:19:55.596,-187500.0224,-187500.0224,-187500.0224,-173303.3119,-184903.5096,-179637.4163,-187500.0224,-187500.0224,0.336,-0.056,0.92,192,0,0,0,0,0,0,0,0,0,0
 2023-06-27 18:19:55.596,-187500.0224,-187500.0224,-187500.0224,-173945.0975,-185894.3401,-180810.704,-187500.0224,-187500.0224,0.336,-0.056,0.92,192,0,0,0,0,0,0,0,0,0,0
 2023-06-27 18:19:55.596,-187500.0224,-187500.0224,-187500.0224,-173815.5468,-185550.0785,-180566.1312,-187500.0224,-187500.0224,0.336,-0.056,0.92,192,0,0,0,0,0,0,0,0,0,0
 2023-06-27 18:19:55.596,-187500.0224,-187500.0224,-187500.0224,-173045.3951,-184257.8348,-179153.7022,-187500.0224,-187500.0224,0.336,-0.056,0.92,192,0,0,0,0,0,0,0,0,0,0
 2023-06-27 18:19:55.596,-187500.0224,-187500.0224,-187500.0224,-172743.9148,-183880.4256,-178606.6656,-187500.0224,-187500.0224,0.336,-0.056,0.92,192,0,0,0,0,0,0,0,0,0,0
 2023-06-27 18:19:55.596,-187500.0224,-187500.0224,-187500.0224,-173291.0408,-184880.979,-179615.5339,-187500.0224,-187500.0224,0.336,-0.056,0.92,192,0,0,0,0,0,0,0,0,0,0
 2023-06-27 18:19:55.596,-187500.0224,-187500.0224,-187500.0224,-173940.873,-185888.1263,-180804.3561,-187500.0224,-187500.0224,0.336,-0.056,0.92,192,0,0,0,0,0,0,0,0,0,0
 2023-06-27 18:19:55.596,-187500.0224,-187500.0224,-187500.0224,-173824.3981,-185565.0765,-180583.7891,-187500.0224,-187500.0224,0.334,-0.06,0.924,192,10,112,254,32,28,224,0,0,0,0
 2023-06-27 18:19:55.596,-187500.0224,-187500.0224,-187500.0224,-173056.7274,-184273.5257,-179174.8469,-187500.0224,-187500.0224,0.334,-0.06,0.924,192,0,0,0,0,0,0,0,0,0,0
 2023-06-27 18:19:55.596,-187500.0224,-187500.0224,-187500.0224,-172739.8467,-183872.6248,-178602.7093,-187500.0224,-187500.0224,0.334,-0.06,0.924,192,0,0,0,0,0,0,0,0,0,0
 2023-06-27 18:19:55.596,-187500.0224,-187500.0224,-187500.0224,-173273.3382,-184853.6652,-179588.5777,-187500.0224,-187500.0224,0.334,-0.06,0.924,192,0,0,0,0,0,0,0,0,0,0
 2023-06-27 18:19:55.596,-187500.0224,-187500.0224,-187500.0224,-173933.2734,-185878.1574,-180793.7614,-187500.0224,-187500.0224,0.334,-0.06,0.924,192,0,0,0,0,0,0,0,0,0,0
 2023-06-27 18:19:55.596,-187500.0224,-187500.0224,-187500.0224,-173829.539,-185575.783,-180596.4402,-187500.0224,-187500.0224,0.334,-0.06,0.924,192,0,0,0,0,0,0,0,0,0,0
 2023-06-27 18:19:55.596,-187500.0224,-187500.0224,-187500.0224,-173067.5904,-184289.6636,-179196.0811,-187500.0224,-187500.0224,0.334,-0.06,0.924,192,0,0,0,0,0,0,0,0,0,0
 2023-06-27 18:19:55.596,-187500.0224,-187500.0224,-187500.0224,-172743.1771,-183874.033,-178608.6325,-187500.0224,-187500.0224,0.334,-0.06,0.924,192,0,0,0,0,0,0,0,0,0,0
 2023-06-27 18:19:55.596,-187500.0224,-187500.0224,-187500.0224,-173276.5792,-184854.1123,-179592.1987,-187500.0224,-187500.0224,0.334,-0.06,0.924,192,0,0,0,0,0,0,0,0,0,0
 2023-06-27 18:19:55.596,-187500.0224,-187500.0224,-187500.0224,-173939.7778,-185885.0641,-180804.3114,-187500.0224,-187500.0224,0.334,-0.06,0.924,192,0,0,0,0,0,0,0,0,0,0
 2023-06-27 18:19:55.596,-187500.0224,-187500.0224,-187500.0224,-173846.9286,-185598.9171,-180625.1398,-187500.0224,-187500.0224,0.334,-0.064,0.922,192,10,112,254,0,28,208,0,0,0,0
 2023-06-27 18:19:55.596,-187500.0224,-187500.0224,-187500.0224,-173086.0082,-184312.2836,-179226.39,-187500.0224,-187500.0224,0.334,-0.064,0.922,192,0,0,0,0,0,0,0,0,0,0
 2023-06-27 18:19:55.596,-187500.0224,-187500.0224,-187500.0224,-172747.0663,-183874.1447,-178615.0698,-187500.0224,-187500.0224,0.334,-0.064,0.922,192,0,0,0,0,0,0,0,0,0,0
 2023-06-27 18:19:55.596,-187500.0224,-187500.0224,-187500.0224,-173265.5151,-184834.2863,-179575.1667,-187500.0224,-187500.0224,0.334,-0.064,0.922,192,0,0,0,0,0,0,0,0,0,0
 2023-06-27 18:19:55.596,-187500.0224,-187500.0224,-187500.0224,-173933.6087,-185876.6599,-180797.9412,-187500.0224,-187500.0224,0.334,-0.064,0.922,192,0,0,0,0,0,0,0,0,0,0
 2023-06-27 18:19:55.596,-187500.0224,-187500.0224,-187500.0224,-173853.813,-185611.2329,-180641.9484,-187500.0224,-187500.0224,0.334,-0.064,0.922,192,0,0,0,0,0,0,0,0,0,0
 2023-06-27 18:19:55.596,-187500.0224,-187500.0224,-187500.0224,-173095.2395,-184325.9852,-179247.4454,-187500.0224,-187500.0224,0.334,-0.064,0.922,192,0,0,0,0,0,0,0,0,0,0
 2023-06-27 18:19:55.596,-187500.0224,-187500.0224,-187500.0224,-172742.0372,-183863.7288,-178610.2642,-187500.0224,-187500.0224,0.334,-0.064,0.922,192,0,0,0,0,0,0,0,0,0,0
 2023-06-27 18:19:55.596,-187500.0224,-187500.0224,-187500.0224,-173250.8076,-184807.7324,-179549.9315,-187500.0224,-187500.0224,0.334,-0.064,0.922,192,0,0,0,0,0,0,0,0,0,0
 2023-06-27 18:19:55.596,-187500.0224,-187500.0224,-187500.0224,-173928.8031,-185868.4791,-180789.8275,-187500.0224,-187500.0224,0.334,-0.064,0.922,192,0,0,0,0,0,0,0,0,0,0
 2023-06-27 18:19:55.596,-187500.0224,-187500.0224,-187500.0224,-173862.8207,-185625.5827,-180658.958,-187500.0224,-187500.0224,0.34,-0.062,0.924,192,10,160,254,16,28,224,0,0,0,0
 2023-06-27 18:19:55.596,-187500.0224,-187500.0224,-187500.0224,-173106.1695,-184341.8773,-179269.1266,-187500.0224,-187500.0224,0.34,-0.062,0.924,192,0,0,0,0,0,0,0,0,0,0
 2023-06-27 18:19:55.596,-187500.0224,-187500.0224,-187500.0224,-172740.6737,-183857.7832,-178608.789,-187500.0224,-187500.0224,0.34,-0.062,0.924,192,0,0,0,0,0,0,0,0,0,0
 2023-06-27 18:19:55.596,-187500.0224,-187500.0224,-187500.0224,-173237.3742,-184783.0561,-179525.7693,-187500.0224,-187500.0224,0.34,-0.062,0.924,192,0,0,0,0,0,0,0,0,0,0
 2023-06-27 18:19:55.596,-187500.0224,-187500.0224,-187500.0224,-173923.4387,-185860.4325,-180781.1103,-187500.0224,-187500.0224,0.34,-0.062,0.924,192,0,0,0,0,0,0,0,0,0,0
 2023-06-27 18:19:55.596,-187500.0224,-187500.0224,-187500.0224,-173870.5321,-185639.2173,-180674.716,-187500.0224,-187500.0224,0.34,-0.062,0.924,192,0,0,0,0,0,0,0,0,0,0
 2023-06-27 18:19:55.596,-187500.0224,-187500.0224,-187500.0224,-173121.5698,-184363.1338,-179296.1275,-187500.0224,-187500.0224,0.34,-0.062,0.924,192,0,0,0,0,0,0,0,0,0,0
 2023-06-27 18:19:55.596,-187500.0224,-187500.0224,-187500.0224,-172743.7136,-183857.6491,-178613.617,-187500.0224,-187500.0224,0.34,-0.062,0.924,192,0,0,0,0,0,0,0,0,0,0
 2023-06-27 18:19:55.596,-187500.0224,-187500.0224,-187500.0224,-173227.4053,-184763.2301,-179507.2173,-187500.0224,-187500.0224,0.34,-0.062,0.924,192,0,0,0,0,0,0,0,0,0,0
 2023-06-27 18:19:55.596,-187500.0224,-187500.0224,-187500.0224,-173922.3211,-185856.9233,-180777.914,-187500.0224,-187500.0224,0.34,-0.062,0.924,192,0,0,0,0,0,0,0,0,0,0
 2023-06-27 18:19:55.596,-187500.0224,-187500.0224,-187500.0224,-173880.501,-185655.3105,-180693.8268,-187500.0224,-187500.0224,0.35,-0.062,0.926,192,10,240,254,16,28,240,0,0,0,0
 2023-06-27 18:19:55.596,-187500.0224,-187500.0224,-187500.0224,-173134.4891,-184382.6246,-179321.9884,-187500.0224,-187500.0224,0.35,-0.062,0.926,192,0,0,0,0,0,0,0,0,0,0
 2023-06-27 18:19:55.596,-187500.0224,-187500.0224,-187500.0224,-172743.8253,-183854.1846,-178615.5839,-187500.0224,-187500.0224,0.35,-0.062,0.926,192,0,0,0,0,0,0,0,0,0,0
 2023-06-27 18:19:55.596,-187500.0224,-187500.0224,-187500.0224,-173210.7533,-184734.2845,-179479.4341,-187500.0224,-187500.0224,0.35,-0.062,0.926,192,0,0,0,0,0,0,0,0,0,0
 2023-06-27 18:19:55.596,-187500.0224,-187500.0224,-187500.0224,-173910.6982,-185841.6794,-180761.8431,-187500.0224,-187500.0224,0.35,-0.062,0.926,192,0,0,0,0,0,0,0,0,0,0
 2023-06-27 18:19:55.596,-187500.0224,-187500.0224,-187500.0224,-173883.9208,-185664.363,-180704.5109,-187500.0224,-187500.0224,0.35,-0.062,0.926,192,0,0,0,0,0,0,0,0,0,0
 2023-06-27 18:19:55.596,-187500.0224,-187500.0224,-187500.0224,-173144.9721,-184399.4554,-179344.1167,-187500.0224,-187500.0224,0.35,-0.062,0.926,192,0,0,0,0,0,0,0,0,0,0
 2023-06-27 18:19:55.597,-187500.0224,-187500.0224,-187500.0224,-172742.596,-183850.1613,-178616.2545,-187500.0224,-187500.0224,0.35,-0.062,0.926,192,0,0,0,0,0,0,0,0,0,0
 2023-06-27 18:19:55.597,-187500.0224,-187500.0224,-187500.0224,-173197.6775,-184711.5752,-179457.7976,-187500.0224,-187500.0224,0.35,-0.062,0.926,192,0,0,0,0,0,0,0,0,0,0
 2023-06-27 18:19:55.597,-187500.0224,-187500.0224,-187500.0224,-173906.3396,-185834.9068,-180754.847,-187500.0224,-187500.0224,0.35,-0.062,0.926,192,0,0,0,0,0,0,0,0,0,0
 2023-06-27 18:19:55.597,-187500.0224,-187500.0224,-187500.0224,-173892.1239,-185677.9752,-180720.6041,-187500.0224,-187500.0224,0.35,-0.066,0.926,192,10,240,253,240,28,240,0,0,0,0
 2023-06-27 18:19:55.597,-187500.0224,-187500.0224,-187500.0224,-173156.215,-184416.398,-179366.8484,-187500.0224,-187500.0224,0.35,-0.066,0.926,192,0,0,0,0,0,0,0,0,0,0
 2023-06-27 18:19:55.597,-187500.0224,-187500.0224,-187500.0224,-172743.803,-183847.3673,-178617.9755,-187500.0224,-187500.0224,0.35,-0.066,0.926,192,0,0,0,0,0,0,0,0,0,0
 2023-06-27 18:19:55.597,-187500.0224,-187500.0224,-187500.0224,-173187.1722,-184688.9329,-179435.3118,-187500.0224,-187500.0224,0.35,-0.066,0.926,192,0,0,0,0,0,0,0,0,0,0
 2023-06-27 18:19:55.597,-187500.0224,-187500.0224,-187500.0224,-173903.9032,-185829.0283,-180747.6051,-187500.0224,-187500.0224,0.35,-0.066,0.926,192,0,0,0,0,0,0,0,0,0,0
 2023-06-27 18:19:55.597,-187500.0224,-187500.0224,-187500.0224,-173903.568,-185694.9178,-180739.0443,-187500.0224,-187500.0224,0.35,-0.066,0.926,192,0,0,0,0,0,0,0,0,0,0
 2023-06-27 18:19:55.597,-187500.0224,-187500.0224,-187500.0224,-173172.0177,-184438.0345,-179393.4023,-187500.0224,-187500.0224,0.35,-0.066,0.926,192,0,0,0,0,0,0,0,0,0,0
 2023-06-27 18:19:55.597,-187500.0224,-187500.0224,-187500.0224,-172745.3229,-183845.9145,-178620.7695,-187500.0224,-187500.0224,0.35,-0.066,0.926,192,0,0,0,0,0,0,0,0,0,0
 2023-06-27 18:19:55.597,-187500.0224,-187500.0224,-187500.0224,-173174.5211,-184667.4752,-179414.6811,-187500.0224,-187500.0224,0.35,-0.066,0.926,192,0,0,0,0,0,0,0,0,0,0
 2023-06-27 18:19:55.597,-187500.0224,-187500.0224,-187500.0224,-173896.8177,-185819.6853,-180738.0162,-187500.0224,-187500.0224,0.35,-0.066,0.926,192,0,0,0,0,0,0,0,0,0,0
 2023-06-27 18:19:55.597,-187500.0224,-187500.0224,-187500.0224,-173910.6535,-185707.323,-180753.7965,-187500.0224,-187500.0224,0.346,-0.066,0.932,192,10,208,253,240,29,32,0,0,0,0
 2023-06-27 18:19:55.597,-187500.0224,-187500.0224,-187500.0224,-173184.8253,-184456.4747,-179417.5198,-187500.0224,-187500.0224,0.346,-0.066,0.932,192,0,0,0,0,0,0,0,0,0,0
 2023-06-27 18:19:55.597,-187500.0224,-187500.0224,-187500.0224,-172746.8875,-183844.3722,-178624.0105,-187500.0224,-187500.0224,0.346,-0.066,0.932,192,0,0,0,0,0,0,0,0,0,0
 2023-06-27 18:19:55.597,-187500.0224,-187500.0224,-187500.0224,-173165.2898,-184648.3868,-179396.6433,-187500.0224,-187500.0224,0.346,-0.066,0.932,192,0,0,0,0,0,0,0,0,0,0
 2023-06-27 18:19:55.597,-187500.0224,-187500.0224,-187500.0224,-173895.9907,-185816.176,-180734.0599,-187500.0224,-187500.0224,0.346,-0.066,0.932,192,0,0,0,0,0,0,0,0,0,0
 2023-06-27 18:19:55.597,-187500.0224,-187500.0224,-187500.0224,-173923.5281,-185725.8973,-180774.5166,-187500.0224,-187500.0224,0.346,-0.066,0.932,192,0,0,0,0,0,0,0,0,0,0
 2023-06-27 18:19:55.597,-187500.0224,-187500.0224,-187500.0224,-173200.9185,-184478.5582,-179445.1689,-187500.0224,-187500.0224,0.346,-0.066,0.932,192,0,0,0,0,0,0,0,0,0,0
 2023-06-27 18:19:55.597,-187500.0224,-187500.0224,-187500.0224,-172746.9322,-183840.5277,-178624.8375,-187500.0224,-187500.0224,0.346,-0.066,0.932,192,0,0,0,0,0,0,0,0,0,0
 2023-06-27 18:19:55.597,-187500.0224,-187500.0224,-187500.0224,-173151.4988,-184624.3363,-179373.3975,-187500.0224,-187500.0224,0.346,-0.066,0.932,192,0,0,0,0,0,0,0,0,0,0
 2023-06-27 18:19:55.597,-187500.0224,-187500.0224,-187500.0224,-173885.4854,-185803.1003,-180720.47,-187500.0224,-187500.0224,0.346,-0.066,0.932,192,0,0,0,0,0,0,0,0,0,0
 2023-06-27 18:19:55.597,-187500.0224,-187500.0224,-187500.0224,-173926.0985,-185734.3687,-180785.0219,-187500.0224,-187500.0224,0.344,-0.076,0.928,192,10,192,253,160,29,0,0,0,0,0
 2023-06-27 18:19:55.597,-187500.0224,-187500.0224,-187500.0224,-173213.1673,-184496.909,-179469.0629,-187500.0224,-187500.0224,0.344,-0.076,0.928,192,0,0,0,0,0,0,0,0,0,0
 2023-06-27 18:19:55.597,-187500.0224,-187500.0224,-187500.0224,-172749.8603,-183840.55,-178629.5985,-187500.0224,-187500.0224,0.344,-0.076,0.928,192,0,0,0,0,0,0,0,0,0,0
 2023-06-27 18:19:55.597,-187500.0224,-187500.0224,-187500.0224,-173144.458,-184607.3266,-179357.3489,-187500.0224,-187500.0224,0.344,-0.076,0.928,192,0,0,0,0,0,0,0,0,0,0
 2023-06-27 18:19:55.597,-187500.0224,-187500.0224,-187500.0224,-173886.8265,-185801.6921,-180718.3466,-187500.0224,-187500.0224,0.344,-0.076,0.928,192,0,0,0,0,0,0,0,0,0,0
 2023-06-27 18:19:55.597,-187500.0224,-187500.0224,-187500.0224,-173938.0567,-185752.0712,-180804.982,-187500.0224,-187500.0224,0.344,-0.076,0.928,192,0,0,0,0,0,0,0,0,0,0
 2023-06-27 18:19:55.597,-187500.0224,-187500.0224,-187500.0224,-173225.8854,-184515.6174,-179493.6945,-187500.0224,-187500.0224,0.344,-0.076,0.928,192,0,0,0,0,0,0,0,0,0,0
 2023-06-27 18:19:55.597,-187500.0224,-187500.0224,-187500.0224,-172752.766,-183838.8513,-178632.7724,-187500.0224,-187500.0224,0.344,-0.076,0.928,192,0,0,0,0,0,0,0,0,0,0
 2023-06-27 18:19:55.597,-187500.0224,-187500.0224,-187500.0224,-173133.1927,-184583.7903,-179334.1254,-187500.0224,-187500.0224,0.344,-0.076,0.928,192,0,0,0,0,0,0,0,0,0,0
 2023-06-27 18:19:55.597,-187500.0224,-187500.0224,-187500.0224,-173879.4951,-185790.248,-180705.1144,-187500.0224,-187500.0224,0.344,-0.076,0.928,192,0,0,0,0,0,0,0,0,0,0
 2023-06-27 18:19:55.597,-187500.0224,-187500.0224,-187500.0224,-173944.2258,-185763.0459,-180816.8284,-187500.0224,-187500.0224,0.34,-0.074,0.924,192,10,160,253,176,28,224,0,0,0,0
 2023-06-27 18:19:55.597,-187500.0224,-187500.0224,-187500.0224,-173237.7765,-184533.2753,-179515.9122,-187500.0224,-187500.0224,0.34,-0.074,0.924,192,0,0,0,0,0,0,0,0,0,0
 2023-06-27 18:19:55.597,-187500.0224,-187500.0224,-187500.0224,-172749.3462,-183832.6152,-178630.269,-187500.0224,-187500.0224,0.34,-0.074,0.924,192,0,0,0,0,0,0,0,0,0,0
 2023-06-27 18:19:55.597,-187500.0224,-187500.0224,-187500.0224,-173116.0936,-184558.7116,-179309.4491,-187500.0224,-187500.0224,0.34,-0.074,0.924,192,0,0,0,0,0,0,0,0,0,0
 2023-06-27 18:19:55.597,-187500.0224,-187500.0224,-187500.0224,-173873.1472,-185782.2461,-180696.5313,-187500.0224,-187500.0224,0.34,-0.074,0.924,192,0,0,0,0,0,0,0,0,0,0
 2023-06-27 18:19:55.597,-187500.0224,-187500.0224,-187500.0224,-173954.5299,-185779.0945,-180834.911,-187500.0224,-187500.0224,0.34,-0.074,0.924,192,0,0,0,0,0,0,0,0,0,0
 2023-06-27 18:19:55.597,-187500.0224,-187500.0224,-187500.0224,-173254.6521,-184556.2082,-179544.2318,-187500.0224,-187500.0224,0.34,-0.074,0.924,192,0,0,0,0,0,0,0,0,0,0
 2023-06-27 18:19:55.597,-187500.0224,-187500.0224,-187500.0224,-172750.1956,-183829.8212,-178631.8336,-187500.0224,-187500.0224,0.34,-0.074,0.924,192,0,0,0,0,0,0,0,0,0,0
 2023-06-27 18:19:55.597,-187500.0224,-187500.0224,-187500.0224,-173103.5096,-184535.6446,-179286.6727,-187500.0224,-187500.0224,0.34,-0.074,0.924,192,0,0,0,0,0,0,0,0,0,0
 2023-06-27 18:19:55.597,-187500.0224,-187500.0224,-187500.0224,-173866.1064,-185771.3384,-180684.0143,-187500.0224,-187500.0224,0.34,-0.074,0.924,192,0,0,0,0,0,0,0,0,0,0
 2023-06-27 18:19:55.597,-187500.0224,-187500.0224,-187500.0224,-173960.1402,-185789.5775,-180846.1986,-187500.0224,-187500.0224,0.34,-0.068,0.92,192,10,160,253,224,28,192,0,0,0,0
 2023-06-27 18:19:55.597,-187500.0224,-187500.0224,-187500.0224,-173263.8163,-184571.6309,-179564.0578,-187500.0224,-187500.0224,0.34,-0.068,0.92,192,0,0,0,0,0,0,0,0,0,0
 2023-06-27 18:19:55.597,-187500.0224,-187500.0224,-187500.0224,-172751.6932,-183828.5472,-178634.3817,-187500.0224,-187500.0224,0.34,-0.068,0.92,192,0,0,0,0,0,0,0,0,0,0
 2023-06-27 18:19:55.597,-187500.0224,-187500.0224,-187500.0224,-173093.0043,-184515.6845,-179266.8914,-187500.0224,-187500.0224,0.34,-0.068,0.92,192,0,0,0,0,0,0,0,0,0,0
 2023-06-27 18:19:55.597,-187500.0224,-187500.0224,-187500.0224,-173856.5399,-185758.4638,-180669.6645,-187500.0224,-187500.0224,0.34,-0.068,0.92,192,0,0,0,0,0,0,0,0,0,0
 2023-06-27 18:19:55.597,-187500.0224,-187500.0224,-187500.0224,-173961.7495,-185796.0595,-180853.8429,-187500.0224,-187500.0224,0.34,-0.068,0.92,192,0,0,0,0,0,0,0,0,0,0
 2023-06-27 18:19:55.597,-187500.0224,-187500.0224,-187500.0224,-173273.2264,-184586.9418,-179583.9062,-187500.0224,-187500.0224,0.34,-0.068,0.92,192,0,0,0,0,0,0,0,0,0,0
 2023-06-27 18:19:55.597,-187500.0224,-187500.0224,-187500.0224,-172748.5192,-183822.4675,-178631.9454,-187500.0224,-187500.0224,0.34,-0.068,0.92,192,0,0,0,0,0,0,0,0,0,0
 2023-06-27 18:19:55.598,-187500.0224,-187500.0224,-187500.0224,-173079.258,-184492.7739,-179244.2491,-187500.0224,-187500.0224,0.34,-0.068,0.92,192,0,0,0,0,0,0,0,0,0,0
 2023-06-27 18:19:55.598,-187500.0224,-187500.0224,-187500.0224,-173852.7401,-185751.2889,-180661.1709,-187500.0224,-187500.0224,0.34,-0.068,0.92,192,0,0,0,0,0,0,0,0,0,0
 2023-06-27 18:19:55.598,-187500.0224,-187500.0224,-187500.0224,-173972.7913,-185811.5492,-180870.2491,-187500.0224,-187500.0224,0.34,-0.068,0.92,192,0,0,0,0,0,0,0,0,0,0
 2023-06-27 18:19:55.598,-187500.0224,-187500.0224,-187500.0224,-173290.4373,-184610.8135,-179611.98,-187500.0224,-187500.0224,0.346,-0.07,0.932,192,10,208,253,208,29,32,0,0,0,0
 2023-06-27 18:19:55.598,-187500.0224,-187500.0224,-187500.0224,-172754.3307,-183825.5744,-178638.4721,-187500.0224,-187500.0224,0.346,-0.07,0.932,192,0,0,0,0,0,0,0,0,0,0
 2023-06-27 18:19:55.598,-187500.0224,-187500.0224,-187500.0224,-173067.3445,-184468.5,-179219.0587,-187500.0224,-187500.0224,0.346,-0.07,0.932,192,0,0,0,0,0,0,0,0,0,0
 2023-06-27 18:19:55.598,-187500.0224,-187500.0224,-187500.0224,-173839.7761,-185733.0722,-180639.2214,-187500.0224,-187500.0224,0.346,-0.07,0.932,192,0,0,0,0,0,0,0,0,0,0
 2023-06-27 18:19:55.598,-187500.0224,-187500.0224,-187500.0224,-173971.2714,-185815.1702,-180872.7525,-187500.0224,-187500.0224,0.346,-0.07,0.932,192,0,0,0,0,0,0,0,0,0,0
 2023-06-27 18:19:55.598,-187500.0224,-187500.0224,-187500.0224,-173295.8017,-184623.0846,-179627.1792,-187500.0224,-187500.0224,0.346,-0.07,0.932,192,0,0,0,0,0,0,0,0,0,0
 2023-06-27 18:19:55.598,-187500.0224,-187500.0224,-187500.0224,-172749.011,-183817.483,-178632.9512,-187500.0224,-187500.0224,0.346,-0.07,0.932,192,0,0,0,0,0,0,0,0,0,0
 2023-06-27 18:19:55.598,-187500.0224,-187500.0224,-187500.0224,-173049.1725,-184440.8956,-179190.2696,-187500.0224,-187500.0224,0.346,-0.07,0.932,192,0,0,0,0,0,0,0,0,0,0
 2023-06-27 18:19:55.598,-187500.0224,-187500.0224,-187500.0224,-173829.3378,-185718.9012,-180622.0777,-187500.0224,-187500.0224,0.346,-0.07,0.932,192,0,0,0,0,0,0,0,0,0,0
 2023-06-27 18:19:55.598,-187500.0224,-187500.0224,-187500.0224,-173977.9099,-185826.5249,-180883.4813,-187500.0224,-187500.0224,0.346,-0.07,0.932,192,0,0,0,0,0,0,0,0,0,0
 2023-06-27 18:19:55.598,-187500.0224,-187500.0224,-187500.0224,-173310.1515,-184644.6317,-179651.6767,-187500.0224,-187500.0224,0.344,-0.064,0.93,192,10,192,254,0,29,16,0,0,0,0
 2023-06-27 18:19:55.598,-187500.0224,-187500.0224,-187500.0224,-172750.7097,-183817.9301,-178636.1922,-187500.0224,-187500.0224,0.344,-0.064,0.93,192,0,0,0,0,0,0,0,0,0,0
 2023-06-27 18:19:55.598,-187500.0224,-187500.0224,-187500.0224,-173041.0365,-184426.0987,-179175.6292,-187500.0224,-187500.0224,0.344,-0.064,0.93,192,0,0,0,0,0,0,0,0,0,0
 2023-06-27 18:19:55.598,-187500.0224,-187500.0224,-187500.0224,-173821.9841,-185708.2618,-180610.1195,-187500.0224,-187500.0224,0.344,-0.064,0.93,192,0,0,0,0,0,0,0,0,0,0
 2023-06-27 18:19:55.598,-187500.0224,-187500.0224,-187500.0224,-173981.5085,-185834.3257,-180891.8185,-187500.0224,-187500.0224,0.344,-0.064,0.93,192,0,0,0,0,0,0,0,0,0,0
 2023-06-27 18:19:55.598,-187500.0224,-187500.0224,-187500.0224,-173323.1155,-184665.2177,-179676.5318,-187500.0224,-187500.0224,0.344,-0.064,0.93,192,0,0,0,0,0,0,0,0,0,0
 2023-06-27 18:19:55.598,-187500.0224,-187500.0224,-187500.0224,-172753.973,-183819.2712,-178641.3108,-187500.0224,-187500.0224,0.344,-0.064,0.93,192,0,0,0,0,0,0,0,0,0,0
 2023-06-27 18:19:55.598,-187500.0224,-187500.0224,-187500.0224,-173029.0113,-184402.9199,-179152.294,-187500.0224,-187500.0224,0.344,-0.064,0.93,192,0,0,0,0,0,0,0,0,0,0
 2023-06-27 18:19:56.075,-187500.0224,-187500.0224,-187500.0224,-173816.9997,-185698.1365,-180597.1108,-187500.0224,-187500.0224,0.344,-0.064,0.93,192,0,0,0,0,0,0,0,0,0,0
 2023-06-27 18:19:56.075,-187500.0224,-187500.0224,-187500.0224,-173991.388,-185849.1002,-180906.0789,-187500.0224,-187500.0224,0.344,-0.064,0.93,192,0,0,0,0,0,0,0,0,0,0
 2023-06-27 18:19:56.075,-187500.0224,-187500.0224,-187500.0224,-173335.9231,-184685.893,-179700.5823,-187500.0224,-187500.0224,0.346,-0.068,0.928,192,10,208,253,224,29,0,0,0,0,0
 2023-06-27 18:19:56.076,-187500.0224,-187500.0224,-187500.0224,-172753.146,-183816.969,-178642.4284,-187500.0224,-187500.0224,0.346,-0.068,0.928,192,0,0,0,0,0,0,0,0,0,0
 2023-06-27 18:19:56.076,-187500.0224,-187500.0224,-187500.0224,-173016.5166,-184382.1552,-179131.6633,-187500.0224,-187500.0224,0.346,-0.068,0.928,192,0,0,0,0,0,0,0,0,0,0
 2023-06-27 18:19:56.076,-187500.0224,-187500.0224,-187500.0224,-173804.7285,-185681.8197,-180578.827,-187500.0224,-187500.0224,0.346,-0.068,0.928,192,0,0,0,0,0,0,0,0,0,0
 2023-06-27 18:19:56.076,-187500.0224,-187500.0224,-187500.0224,-173988.9963,-185851.3353,-180908.4706,-187500.0224,-187500.0224,0.346,-0.068,0.928,192,0,0,0,0,0,0,0,0,0,0
 2023-06-27 18:19:56.076,-187500.0224,-187500.0224,-187500.0224,-173348.4624,-184706.2555,-179724.9457,-187500.0224,-187500.0224,0.346,-0.068,0.928,192,0,0,0,0,0,0,0,0,0,0
 2023-06-27 18:19:56.076,-187500.0224,-187500.0224,-187500.0224,-172756.0517,-183818.6453,-178647.9045,-187500.0224,-187500.0224,0.346,-0.068,0.928,192,0,0,0,0,0,0,0,0,0,0
 2023-06-27 18:19:56.076,-187500.0224,-187500.0224,-187500.0224,-173005.2737,-184360.854,-179110.6974,-187500.0224,-187500.0224,0.346,-0.068,0.928,192,0,0,0,0,0,0,0,0,0,0
 2023-06-27 18:19:56.076,-187500.0224,-187500.0224,-187500.0224,-173796.749,-185668.811,-180563.6278,-187500.0224,-187500.0224,0.346,-0.068,0.928,192,0,0,0,0,0,0,0,0,0,0
 2023-06-27 18:19:56.076,-187500.0224,-187500.0224,-187500.0224,-173998.4064,-185865.7746,-180923.0215,-187500.0224,-187500.0224,0.346,-0.068,0.928,192,0,0,0,0,0,0,0,0,0,0
 2023-06-27 18:19:56.076,-187500.0224,-187500.0224,-187500.0224,-173366.0309,-184732.8093,-179755.7911,-187500.0224,-187500.0224,0.338,-0.066,0.926,192,10,144,253,240,28,240,0,0,0,0
 2023-06-27 18:19:56.076,-187500.0224,-187500.0224,-187500.0224,-172761.7961,-183823.7862,-178657.4711,-187500.0224,-187500.0224,0.338,-0.066,0.926,192,0,0,0,0,0,0,0,0,0,0
 2023-06-27 18:19:56.076,-187500.0224,-187500.0224,-187500.0224,-172997.4282,-184344.6936,-179095.677,-187500.0224,-187500.0224,0.338,-0.066,0.926,192,0,0,0,0,0,0,0,0,0,0
 2023-06-27 18:19:56.076,-187500.0224,-187500.0224,-187500.0224,-173787.3836,-185654.8858,-180548.5404,-187500.0224,-187500.0224,0.338,-0.066,0.926,192,0,0,0,0,0,0,0,0,0,0
 2023-06-27 18:19:56.076,-187500.0224,-187500.0224,-187500.0224,-174001.6251,-185872.4577,-180930.2412,-187500.0224,-187500.0224,0.338,-0.066,0.926,192,0,0,0,0,0,0,0,0,0,0
 2023-06-27 18:19:56.076,-187500.0224,-187500.0224,-187500.0224,-173378.3914,-184753.1271,-179780.2439,-187500.0224,-187500.0224,0.338,-0.066,0.926,192,0,0,0,0,0,0,0,0,0,0
 2023-06-27 18:19:56.076,-187500.0224,-187500.0224,-187500.0224,-172764.3666,-183825.8649,-178664.1095,-187500.0224,-187500.0224,0.338,-0.066,0.926,192,0,0,0,0,0,0,0,0,0,0
 2023-06-27 18:19:56.076,-187500.0224,-187500.0224,-187500.0224,-172987.7052,-184326.7005,-179079.1591,-187500.0224,-187500.0224,0.338,-0.066,0.926,192,0,0,0,0,0,0,0,0,0,0
 2023-06-27 18:19:56.076,-187500.0224,-187500.0224,-187500.0224,-173780.2534,-185642.9277,-180535.6211,-187500.0224,-187500.0224,0.338,-0.066,0.926,192,0,0,0,0,0,0,0,0,0,0
 2023-06-27 18:19:56.076,-187500.0224,-187500.0224,-187500.0224,-174005.4919,-185880.035,-180938.6007,-187500.0224,-187500.0224,0.338,-0.066,0.926,192,0,0,0,0,0,0,0,0,0,0
 2023-06-27 18:19:56.076,-187500.0224,-187500.0224,-187500.0224,-173394.954,-184777.9822,-179809.7035,-187500.0224,-187500.0224,0.338,-0.056,0.928,192,10,144,254,64,29,0,0,0,0,0
 2023-06-27 18:19:56.076,-187500.0224,-187500.0224,-187500.0224,-172768.4793,-183829.5977,-178672.6032,-187500.0224,-187500.0224,0.338,-0.056,0.928,192,0,0,0,0,0,0,0,0,0,0
 2023-06-27 18:19:56.076,-187500.0224,-187500.0224,-187500.0224,-172979.3233,-184310.1602,-179064.4516,-187500.0224,-187500.0224,0.338,-0.056,0.928,192,0,0,0,0,0,0,0,0,0,0
 2023-06-27 18:19:56.076,-187500.0224,-187500.0224,-187500.0224,-173772.922,-185630.7683,-180522.8806,-187500.0224,-187500.0224,0.338,-0.056,0.928,192,0,0,0,0,0,0,0,0,0,0
 2023-06-27 18:19:56.076,-187500.0224,-187500.0224,-187500.0224,-174011.1916,-185889.5568,-180949.1731,-187500.0224,-187500.0224,0.338,-0.056,0.928,192,0,0,0,0,0,0,0,0,0,0
 2023-06-27 18:19:56.076,-187500.0224,-187500.0224,-187500.0224,-173407.6722,-184798.4341,-179834.9163,-187500.0224,-187500.0224,0.338,-0.056,0.928,192,0,0,0,0,0,0,0,0,0,0
 2023-06-27 18:19:56.076,-187500.0224,-187500.0224,-187500.0224,-172771.5192,-183831.9893,-178680.091,-187500.0224,-187500.0224,0.338,-0.056,0.928,192,0,0,0,0,0,0,0,0,0,0
 2023-06-27 18:19:56.076,-187500.0224,-187500.0224,-187500.0224,-172967.8345,-184289.7084,-179045.8997,-187500.0224,-187500.0224,0.338,-0.056,0.928,192,0,0,0,0,0,0,0,0,0,0
 2023-06-27 18:19:56.076,-187500.0224,-187500.0224,-187500.0224,-173764.0484,-185615.9491,-180507.2791,-187500.0224,-187500.0224,0.338,-0.056,0.928,192,0,0,0,0,0,0,0,0,0,0
 2023-06-27 18:19:56.076,-187500.0224,-187500.0224,-187500.0224,-174016.109,-185897.3799,-180957.8009,-187500.0224,-187500.0224,0.338,-0.056,0.928,192,0,0,0,0,0,0,0,0,0,0
 2023-06-27 18:19:56.076,-187500.0224,-187500.0224,-187500.0224,-173421.7985,-184820.4058,-179861.2243,-187500.0224,-187500.0224,0.344,-0.062,0.926,192,10,192,254,16,28,240,0,0,0,0
 2023-06-27 18:19:56.076,-187500.0224,-187500.0224,-187500.0224,-172777.6659,-183837.4655,-178690.1493,-187500.0224,-187500.0224,0.344,-0.062,0.926,192,0,0,0,0,0,0,0,0,0,0
 2023-06-27 18:19:56.076,-187500.0224,-187500.0224,-187500.0224,-172959.9891,-184273.2128,-179030.924,-187500.0224,-187500.0224,0.344,-0.062,0.926,192,0,0,0,0,0,0,0,0,0,0
 2023-06-27 18:19:56.076,-187500.0224,-187500.0224,-187500.0224,-173755.3982,-185602.0016,-180492.1693,-187500.0224,-187500.0224,0.344,-0.062,0.926,192,0,0,0,0,0,0,0,0,0,0
 2023-06-27 18:19:56.076,-187500.0224,-187500.0224,-187500.0224,-174020.4899,-185905.6277,-180966.8086,-187500.0224,-187500.0224,0.344,-0.062,0.926,192,0,0,0,0,0,0,0,0,0,0
 2023-06-27 18:19:56.076,-187500.0224,-187500.0224,-187500.0224,-173435.7683,-184842.4893,-179887.9793,-187500.0224,-187500.0224,0.344,-0.062,0.926,192,0,0,0,0,0,0,0,0,0,0
 2023-06-27 18:19:56.076,-187500.0224,-187500.0224,-187500.0224,-172781.5774,-183841.1088,-178698.6653,-187500.0224,-187500.0224,0.344,-0.062,0.926,192,0,0,0,0,0,0,0,0,0,0
 2023-06-27 18:19:56.076,-187500.0224,-187500.0224,-187500.0224,-172952.7247,-184258.55,-179018.2953,-187500.0224,-187500.0224,0.344,-0.062,0.926,192,0,0,0,0,0,0,0,0,0,0
 2023-06-27 18:19:56.076,-187500.0224,-187500.0224,-187500.0224,-173750.4138,-185592.3457,-180482.424,-187500.0224,-187500.0224,0.344,-0.062,0.926,192,0,0,0,0,0,0,0,0,0,0
 2023-06-27 18:19:56.076,-187500.0224,-187500.0224,-187500.0224,-174026.7484,-185914.8366,-180977.3139,-187500.0224,-187500.0224,0.344,-0.062,0.926,192,0,0,0,0,0,0,0,0,0,0
 2023-06-27 18:19:56.076,-187500.0224,-187500.0224,-187500.0224,-173456.3766,-184871.2784,-179921.7304,-187500.0224,-187500.0224,0.348,-0.066,0.928,192,10,224,253,240,29,0,0,0,0,0
 2023-06-27 18:19:56.076,-187500.0224,-187500.0224,-187500.0224,-172792.5521,-183852.0165,-178715.2503,-187500.0224,-187500.0224,0.348,-0.066,0.928,192,0,0,0,0,0,0,0,0,0,0
 2023-06-27 18:19:56.076,-187500.0224,-187500.0224,-187500.0224,-172946.6674,-184243.7085,-179005.823,-187500.0224,-187500.0224,0.348,-0.066,0.928,192,0,0,0,0,0,0,0,0,0,0
 2023-06-27 18:19:56.076,-187500.0224,-187500.0224,-187500.0224,-173741.2496,-185576.7889,-180466.1742,-187500.0224,-187500.0224,0.348,-0.066,0.928,192,0,0,0,0,0,0,0,0,0,0
 2023-06-27 18:19:56.076,-187500.0224,-187500.0224,-187500.0224,-174031.934,-185922.995,-180986.4111,-187500.0224,-187500.0224,0.348,-0.066,0.928,192,0,0,0,0,0,0,0,0,0,0
 2023-06-27 18:19:56.077,-187500.0224,-187500.0224,-187500.0224,-173472.0005,-184894.703,-179949.8489,-187500.0224,-187500.0224,0.348,-0.066,0.928,192,0,0,0,0,0,0,0,0,0,0
 2023-06-27 18:19:56.077,-187500.0224,-187500.0224,-187500.0224,-172800.7105,-183860.4207,-178729.0414,-187500.0224,-187500.0224,0.348,-0.066,0.928,192,0,0,0,0,0,0,0,0,0,0
 2023-06-27 18:19:56.077,-187500.0224,-187500.0224,-187500.0224,-172944.6334,-184234.276,-178999.3187,-187500.0224,-187500.0224,0.348,-0.066,0.928,192,0,0,0,0,0,0,0,0,0,0
 2023-06-27 18:19:56.077,-187500.0224,-187500.0224,-187500.0224,-173736.8239,-185566.887,-180456.7195,-187500.0224,-187500.0224,0.348,-0.066,0.928,192,0,0,0,0,0,0,0,0,0,0
 2023-06-27 18:19:56.077,-187500.0224,-187500.0224,-187500.0224,-174034.5715,-185927.7112,-180992.7366,-187500.0224,-187500.0224,0.348,-0.066,0.928,192,0,0,0,0,0,0,0,0,0,0
 2023-06-27 18:19:56.077,-187500.0224,-187500.0224,-187500.0224,-173482.6846,-184912.6515,-179972.6477,-187500.0224,-187500.0224,0.348,-0.062,0.932,192,10,224,254,16,29,32,0,0,0,0
 2023-06-27 18:19:56.077,-187500.0224,-187500.0224,-187500.0224,-172805.0021,-183864.0417,-178737.8927,-187500.0224,-187500.0224,0.348,-0.062,0.932,192,0,0,0,0,0,0,0,0,0,0
 2023-06-27 18:19:56.077,-187500.0224,-187500.0224,-187500.0224,-172932.2953,-184212.9078,-178979.962,-187500.0224,-187500.0224,0.348,-0.062,0.932,192,0,0,0,0,0,0,0,0,0,0
 2023-06-27 18:19:56.077,-187500.0224,-187500.0224,-187500.0224,-173724.1505,-185547.7316,-180436.8711,-187500.0224,-187500.0224,0.348,-0.062,0.932,192,0,0,0,0,0,0,0,0,0,0
 2023-06-27 18:19:56.077,-187500.0224,-187500.0224,-187500.0224,-174037.3655,-185932.5839,-180998.2128,-187500.0224,-187500.0224,0.348,-0.062,0.932,192,0,0,0,0,0,0,0,0,0,0
 2023-06-27 18:19:56.077,-187500.0224,-187500.0224,-187500.0224,-173497.3027,-184934.8468,-179998.6875,-187500.0224,-187500.0224,0.348,-0.062,0.932,192,0,0,0,0,0,0,0,0,0,0
 2023-06-27 18:19:56.077,-187500.0224,-187500.0224,-187500.0224,-172808.8466,-183868.6685,-178747.3921,-187500.0224,-187500.0224,0.348,-0.062,0.932,192,0,0,0,0,0,0,0,0,0,0
 2023-06-27 18:19:56.077,-187500.0224,-187500.0224,-187500.0224,-172926.3273,-184200.7484,-178970.239,-187500.0224,-187500.0224,0.348,-0.062,0.932,192,0,0,0,0,0,0,0,0,0,0
 2023-06-27 18:19:56.077,-187500.0224,-187500.0224,-187500.0224,-173720.0378,-185538.8132,-180427.9081,-187500.0224,-187500.0224,0.348,-0.062,0.932,192,0,0,0,0,0,0,0,0,0,0
 2023-06-27 18:19:56.077,-187500.0224,-187500.0224,-187500.0224,-174042.1711,-185940.5635,-181007.4217,-187500.0224,-187500.0224,0.348,-0.062,0.932,192,0,0,0,0,0,0,0,0,0,0
 2023-06-27 18:19:56.077,-187500.0224,-187500.0224,-187500.0224,-173512.0995,-184958.1596,-180027.2977,-187500.0224,-187500.0224,0.338,-0.058,0.93,192,10,144,254,48,29,16,0,0,0,0
 2023-06-27 18:19:56.077,-187500.0224,-187500.0224,-187500.0224,-172817.005,-183877.4975,-178762.2337,-187500.0224,-187500.0224,0.338,-0.058,0.93,192,0,0,0,0,0,0,0,0,0,0
 2023-06-27 18:19:56.077,-187500.0224,-187500.0224,-187500.0224,-172922.8181,-184189.9972,-178962.863,-187500.0224,-187500.0224,0.338,-0.058,0.93,192,0,0,0,0,0,0,0,0,0,0
 2023-06-27 18:19:56.077,-187500.0224,-187500.0224,-187500.0224,-173713.7122,-185527.1233,-180417.2016,-187500.0224,-187500.0224,0.338,-0.058,0.93,192,0,0,0,0,0,0,0,0,0,0
 2023-06-27 18:19:56.077,-187500.0224,-187500.0224,-187500.0224,-174047.9826,-185949.4595,-181018.7094,-187500.0224,-187500.0224,0.338,-0.058,0.93,192,0,0,0,0,0,0,0,0,0,0
 2023-06-27 18:19:56.077,-187500.0224,-187500.0224,-187500.0224,-173530.2938,-184985.0711,-180060.0877,-187500.0224,-187500.0224,0.338,-0.058,0.93,192,0,0,0,0,0,0,0,0,0,0
 2023-06-27 18:19:56.077,-187500.0224,-187500.0224,-187500.0224,-172828.9855,-183890.9085,-178782.9538,-187500.0224,-187500.0224,0.338,-0.058,0.93,192,0,0,0,0,0,0,0,0,0,0
 2023-06-27 18:19:56.077,-187500.0224,-187500.0224,-187500.0224,-172920.8065,-184180.1401,-178957.9456,-187500.0224,-187500.0224,0.338,-0.058,0.93,192,0,0,0,0,0,0,0,0,0,0
 2023-06-27 18:19:56.077,-187500.0224,-187500.0224,-187500.0224,-173705.0174,-185510.8512,-180402.2259,-187500.0224,-187500.0224,0.338,-0.058,0.93,192,0,0,0,0,0,0,0,0,0,0
 2023-06-27 18:19:56.077,-187500.0224,-187500.0224,-187500.0224,-174048.9437,-185951.8064,-181023.2468,-187500.0224,-187500.0224,0.338,-0.058,0.93,192,0,0,0,0,0,0,0,0,0,0
 2023-06-27 18:19:56.077,-187500.0224,-187500.0224,-187500.0224,-173544.1743,-185006.7076,-180087.6474,-187500.0224,-187500.0224,0.34,-0.066,0.928,192,10,160,253,240,29,0,0,0,0,0
 2023-06-27 18:19:56.077,-187500.0224,-187500.0224,-187500.0224,-172835.0428,-183897.0553,-178795.7613,-187500.0224,-187500.0224,0.34,-0.066,0.928,192,0,0,0,0,0,0,0,0,0,0
 2023-06-27 18:19:56.077,-187500.0224,-187500.0224,-187500.0224,-172911.3964,-184162.0352,-178943.3946,-187500.0224,-187500.0224,0.34,-0.066,0.928,192,0,0,0,0,0,0,0,0,0,0
 2023-06-27 18:19:56.077,-187500.0224,-187500.0224,-187500.0224,-173694.7803,-185492.5898,-180384.2774,-187500.0224,-187500.0224,0.34,-0.066,0.928,192,0,0,0,0,0,0,0,0,0,0
 2023-06-27 18:19:56.077,-187500.0224,-187500.0224,-187500.0224,-174051.0671,-185955.1368,-181027.8959,-187500.0224,-187500.0224,0.34,-0.066,0.928,192,0,0,0,0,0,0,0,0,0,0
 2023-06-27 18:19:56.077,-187500.0224,-187500.0224,-187500.0224,-173558.1441,-185028.6123,-180114.2907,-187500.0224,-187500.0224,0.34,-0.066,0.928,192,0,0,0,0,0,0,0,0,0,0
 2023-06-27 18:19:56.077,-187500.0224,-187500.0224,-187500.0224,-172843.1788,-183906.0407,-178810.5805,-187500.0224,-187500.0224,0.34,-0.066,0.928,192,0,0,0,0,0,0,0,0,0,0
 2023-06-27 18:19:56.077,-187500.0224,-187500.0224,-187500.0224,-172905.5402,-184147.8642,-178932.1964,-187500.0224,-187500.0224,0.34,-0.066,0.928,192,0,0,0,0,0,0,0,0,0,0
 2023-06-27 18:19:56.077,-187500.0224,-187500.0224,-187500.0224,-173686.6666,-185476.7871,-180367.7148,-187500.0224,-187500.0224,0.34,-0.066,0.928,192,0,0,0,0,0,0,0,0,0,0
 2023-06-27 18:19:56.077,-187500.0224,-187500.0224,-187500.0224,-174056.3645,-185961.9094,-181034.9144,-187500.0224,-187500.0224,0.34,-0.066,0.928,192,0,0,0,0,0,0,0,0,0,0
 2023-06-27 18:19:56.077,-187500.0224,-187500.0224,-187500.0224,-173573.7233,-185051.5676,-180141.0011,-187500.0224,-187500.0224,0.346,-0.064,0.926,192,10,208,254,0,28,240,0,0,0,0
 2023-06-27 18:19:56.077,-187500.0224,-187500.0224,-187500.0224,-172850.2196,-183913.752,-178823.3657,-187500.0224,-187500.0224,0.346,-0.064,0.926,192,0,0,0,0,0,0,0,0,0,0
 2023-06-27 18:19:56.077,-187500.0224,-187500.0224,-187500.0224,-172897.583,-184131.5698,-178918.383,-187500.0224,-187500.0224,0.346,-0.064,0.926,192,0,0,0,0,0,0,0,0,0,0
 2023-06-27 18:19:56.077,-187500.0224,-187500.0224,-187500.0224,-173672.2498,-185454.1001,-180344.022,-187500.0224,-187500.0224,0.346,-0.064,0.926,192,0,0,0,0,0,0,0,0,0,0
 2023-06-27 18:19:56.077,-187500.0224,-187500.0224,-187500.0224,-174055.001,-185962.2,-181035.1379,-187500.0224,-187500.0224,0.346,-0.064,0.926,192,0,0,0,0,0,0,0,0,0,0
 2023-06-27 18:19:56.077,-187500.0224,-187500.0224,-187500.0224,-173584.6309,-185070.4324,-180163.4869,-187500.0224,-187500.0224,0.346,-0.064,0.926,192,0,0,0,0,0,0,0,0,0,0
 2023-06-27 18:19:56.077,-187500.0224,-187500.0224,-187500.0224,-172853.2818,-183917.0154,-178831.1441,-187500.0224,-187500.0224,0.346,-0.064,0.926,192,0,0,0,0,0,0,0,0,0,0
 2023-06-27 18:19:56.077,-187500.0224,-187500.0224,-187500.0224,-172884.5072,-184108.838,-178896.8583,-187500.0224,-187500.0224,0.346,-0.064,0.926,192,0,0,0,0,0,0,0,0,0,0
 2023-06-27 18:19:56.077,-187500.0224,-187500.0224,-187500.0224,-173654.6366,-185426.7639,-180313.6906,-187500.0224,-187500.0224,0.346,-0.064,0.926,192,0,0,0,0,0,0,0,0,0,0
 2023-06-27 18:19:56.077,-187500.0224,-187500.0224,-187500.0224,-174051.3353,-185959.8307,-181030.7123,-187500.0224,-187500.0224,0.346,-0.064,0.926,192,0,0,0,0,0,0,0,0,0,0
 2023-06-27 18:19:56.077,-187500.0224,-187500.0224,-187500.0224,-173596.7456,-185091.2866,-180186.2857,-187500.0224,-187500.0224,0.344,-0.062,0.93,192,10,192,254,16,29,16,0,0,0,0
 2023-06-27 18:19:56.077,-187500.0224,-187500.0224,-187500.0224,-172860.3897,-183925.2632,-178842.6106,-187500.0224,-187500.0224,0.344,-0.062,0.93,192,0,0,0,0,0,0,0,0,0,0
 2023-06-27 18:19:56.077,-187500.0224,-187500.0224,-187500.0224,-172876.8629,-184093.3483,-178881.9049,-187500.0224,-187500.0224,0.344,-0.062,0.93,192,0,0,0,0,0,0,0,0,0,0
 2023-06-27 18:19:56.077,-187500.0224,-187500.0224,-187500.0224,-173641.9408,-185406.5133,-180290.8919,-187500.0224,-187500.0224,0.344,-0.062,0.93,192,0,0,0,0,0,0,0,0,0,0
 2023-06-27 18:19:56.077,-187500.0224,-187500.0224,-187500.0224,-174051.8047,-185961.5741,-181030.5558,-187500.0224,-187500.0224,0.344,-0.062,0.93,192,0,0,0,0,0,0,0,0,0,0
 2023-06-27 18:19:56.077,-187500.0224,-187500.0224,-187500.0224,-173605.7086,-185107.6704,-180203.9436,-187500.0224,-187500.0224,0.344,-0.062,0.93,192,0,0,0,0,0,0,0,0,0,0
 2023-06-27 18:19:56.077,-187500.0224,-187500.0224,-187500.0224,-172862.9378,-183928.303,-178848.3103,-187500.0224,-187500.0224,0.344,-0.062,0.93,192,0,0,0,0,0,0,0,0,0,0
 2023-06-27 18:19:56.077,-187500.0224,-187500.0224,-187500.0224,-172867.8775,-184076.6068,-178865.2752,-187500.0224,-187500.0224,0.344,-0.062,0.93,192,0,0,0,0,0,0,0,0,0,0
 2023-06-27 18:19:56.077,-187500.0224,-187500.0224,-187500.0224,-173630.899,-185388.1401,-180269.2554,-187500.0224,-187500.0224,0.344,-0.062,0.93,192,0,0,0,0,0,0,0,0,0,0
 2023-06-27 18:19:56.077,-187500.0224,-187500.0224,-187500.0224,-174051.6259,-185963.0717,-181029.8852,-187500.0224,-187500.0224,0.344,-0.062,0.93,192,0,0,0,0,0,0,0,0,0,0
 2023-06-27 18:19:56.077,-187500.0224,-187500.0224,-187500.0224,-173616.6386,-185126.5577,-180224.3284,-187500.0224,-187500.0224,0.342,-0.058,0.92,192,10,176,254,48,28,192,0,0,0,0
 2023-06-27 18:19:56.077,-187500.0224,-187500.0224,-187500.0224,-172868.2352,-183935.7238,-178858.525,-187500.0224,-187500.0224,0.342,-0.058,0.92,192,0,0,0,0,0,0,0,0,0,0
 2023-06-27 18:19:56.077,-187500.0224,-187500.0224,-187500.0224,-172860.0097,-184063.017,-178852.2218,-187500.0224,-187500.0224,0.342,-0.058,0.92,192,0,0,0,0,0,0,0,0,0,0
 2023-06-27 18:19:56.077,-187500.0224,-187500.0224,-187500.0224,-173617.1751,-185368.6494,-180247.6412,-187500.0224,-187500.0224,0.342,-0.058,0.92,192,0,0,0,0,0,0,0,0,0,0
 2023-06-27 18:19:56.078,-187500.0224,-187500.0224,-187500.0224,-174048.2732,-185962.2447,-181027.9853,-187500.0224,-187500.0224,0.342,-0.058,0.92,192,0,0,0,0,0,0,0,0,0,0
 2023-06-27 18:19:56.078,-187500.0224,-187500.0224,-187500.0224,-173627.3898,-185145.6013,-180245.6743,-187500.0224,-187500.0224,0.342,-0.058,0.92,192,0,0,0,0,0,0,0,0,0,0
 2023-06-27 18:19:56.078,-187500.0224,-187500.0224,-187500.0224,-172873.3537,-183942.4964,-178868.9856,-187500.0224,-187500.0224,0.342,-0.058,0.92,192,0,0,0,0,0,0,0,0,0,0
 2023-06-27 18:19:56.078,-187500.0224,-187500.0224,-187500.0224,-172852.0525,-184048.9354,-178839.3472,-187500.0224,-187500.0224,0.342,-0.058,0.92,192,0,0,0,0,0,0,0,0,0,0
 2023-06-27 18:19:56.078,-187500.0224,-187500.0224,-187500.0224,-173608.212,-185353.7184,-180231.0339,-187500.0224,-187500.0224,0.342,-0.058,0.92,192,0,0,0,0,0,0,0,0,0,0
 2023-06-27 18:19:56.078,-187500.0224,-187500.0224,-187500.0224,-174051.8047,-185968.1008,-181033.1709,-187500.0224,-187500.0224,0.342,-0.058,0.92,192,0,0,0,0,0,0,0,0,0,0
 2023-06-27 18:19:56.078,-187500.0224,-187500.0224,-187500.0224,-173645.383,-185172.6246,-180275.7374,-187500.0224,-187500.0224,0.338,-0.064,0.92,192,10,144,254,0,28,192,0,0,0,0
 2023-06-27 18:19:56.078,-187500.0224,-187500.0224,-187500.0224,-172884.9766,-183957.3603,-178888.6775,-187500.0224,-187500.0224,0.338,-0.064,0.92,192,0,0,0,0,0,0,0,0,0,0
 2023-06-27 18:19:56.078,-187500.0224,-187500.0224,-187500.0224,-172851.5608,-184042.9451,-178836.3968,-187500.0224,-187500.0224,0.338,-0.064,0.92,192,0,0,0,0,0,0,0,0,0,0
 2023-06-27 18:19:56.078,-187500.0224,-187500.0224,-187500.0224,-173603.6746,-185342.5426,-180220.0145,-187500.0224,-187500.0224,0.338,-0.064,0.92,192,0,0,0,0,0,0,0,0,0,0
 2023-06-27 18:19:56.078,-187500.0224,-187500.0224,-187500.0224,-174057.4374,-185975.544,-181041.5528,-187500.0224,-187500.0224,0.338,-0.064,0.92,192,0,0,0,0,0,0,0,0,0,0
 2023-06-27 18:19:56.078,-187500.0224,-187500.0224,-187500.0224,-173660.9621,-185197.2115,-180304.5488,-187500.0224,-187500.0224,0.338,-0.064,0.92,192,0,0,0,0,0,0,0,0,0,0
 2023-06-27 18:19:56.078,-187500.0224,-187500.0224,-187500.0224,-172896.2642,-183971.3972,-178908.6153,-187500.0224,-187500.0224,0.338,-0.064,0.92,192,0,0,0,0,0,0,0,0,0,0
 2023-06-27 18:19:56.078,-187500.0224,-187500.0224,-187500.0224,-172848.8562,-184033.4009,-178830.2948,-187500.0224,-187500.0224,0.338,-0.064,0.92,192,0,0,0,0,0,0,0,0,0,0
 2023-06-27 18:19:56.556,-187500.0224,-187500.0224,-187500.0224,-173592.2529,-185323.1636,-180200.3673,-187500.0224,-187500.0224,0.338,-0.064,0.92,192,0,0,0,0,0,0,0,0,0,0
 2023-06-27 18:19:56.556,-187500.0224,-187500.0224,-187500.0224,-174057.9738,-185977.1309,-181043.3857,-187500.0224,-187500.0224,0.338,-0.064,0.92,192,0,0,0,0,0,0,0,0,0,0
 2023-06-27 18:19:56.556,-187500.0224,-187500.0224,-187500.0224,-173670.6404,-185214.9365,-180326.2076,-187500.0224,-187500.0224,0.344,-0.064,0.92,192,10,192,254,0,28,192,0,0,0,0
 2023-06-27 18:19:56.556,-187500.0224,-187500.0224,-187500.0224,-172899.6617,-183977.0074,-178920.1488,-187500.0224,-187500.0224,0.344,-0.064,0.92,192,0,0,0,0,0,0,0,0,0,0
 2023-06-27 18:19:56.556,-187500.0224,-187500.0224,-187500.0224,-172839.2673,-184017.4194,-178817.9566,-187500.0224,-187500.0224,0.344,-0.064,0.92,192,0,0,0,0,0,0,0,0,0,0
 2023-06-27 18:19:56.556,-187500.0224,-187500.0224,-187500.0224,-173575.9584,-185298.4202,-180175.4898,-187500.0224,-187500.0224,0.344,-0.064,0.92,192,0,0,0,0,0,0,0,0,0,0
 2023-06-27 18:19:56.556,-187500.0224,-187500.0224,-187500.0224,-174053.3023,-185972.6829,-181039.0942,-187500.0224,-187500.0224,0.344,-0.064,0.92,192,0,0,0,0,0,0,0,0,0,0
 2023-06-27 18:19:56.556,-187500.0224,-187500.0224,-187500.0224,-173682.7551,-185234.8072,-180349.2746,-187500.0224,-187500.0224,0.344,-0.064,0.92,192,0,0,0,0,0,0,0,0,0,0
 2023-06-27 18:19:56.556,-187500.0224,-187500.0224,-187500.0224,-172908.893,-183989.055,-178937.2479,-187500.0224,-187500.0224,0.344,-0.064,0.92,192,0,0,0,0,0,0,0,0,0,0
 2023-06-27 18:19:56.556,-187500.0224,-187500.0224,-187500.0224,-172834.8416,-184006.5341,-178809.8653,-187500.0224,-187500.0224,0.344,-0.064,0.92,192,0,0,0,0,0,0,0,0,0,0
 2023-06-27 18:19:56.556,-187500.0224,-187500.0224,-187500.0224,-173566.8613,-185280.4494,-180156.6249,-187500.0224,-187500.0224,0.344,-0.064,0.92,192,0,0,0,0,0,0,0,0,0,0
 2023-06-27 18:19:56.556,-187500.0224,-187500.0224,-187500.0224,-174056.0739,-185976.2369,-181042.1116,-187500.0224,-187500.0224,0.344,-0.064,0.92,192,0,0,0,0,0,0,0,0,0,0
 2023-06-27 18:19:56.556,-187500.0224,-187500.0224,-187500.0224,-173697.1272,-185256.9354,-180374.3086,-187500.0224,-187500.0224,0.338,-0.064,0.918,192,10,144,254,0,28,176,0,0,0,0
 2023-06-27 18:19:56.556,-187500.0224,-187500.0224,-187500.0224,-172919.0183,-184001.4379,-178954.4587,-187500.0224,-187500.0224,0.338,-0.064,0.918,192,0,0,0,0,0,0,0,0,0,0
 2023-06-27 18:19:56.556,-187500.0224,-187500.0224,-187500.0224,-172828.0914,-183993.2125,-178799.1588,-187500.0224,-187500.0224,0.338,-0.064,0.918,192,0,0,0,0,0,0,0,0,0,0
 2023-06-27 18:19:56.556,-187500.0224,-187500.0224,-187500.0224,-173553.5173,-185258.947,-180134.0944,-187500.0224,-187500.0224,0.338,-0.064,0.918,192,0,0,0,0,0,0,0,0,0,0
 2023-06-27 18:19:56.556,-187500.0224,-187500.0224,-187500.0224,-174054.9116,-185975.7004,-181040.8152,-187500.0224,-187500.0224,0.338,-0.064,0.918,192,0,0,0,0,0,0,0,0,0,0
 2023-06-27 18:19:56.556,-187500.0224,-187500.0224,-187500.0224,-173710.8289,-185278.4601,-180398.3367,-187500.0224,-187500.0224,0.338,-0.064,0.918,192,0,0,0,0,0,0,0,0,0,0
 2023-06-27 18:19:56.556,-187500.0224,-187500.0224,-187500.0224,-172931.2894,-184016.0783,-178973.5918,-187500.0224,-187500.0224,0.338,-0.064,0.918,192,0,0,0,0,0,0,0,0,0,0
 2023-06-27 18:19:56.557,-187500.0224,-187500.0224,-187500.0224,-172825.3869,-183983.5118,-178791.5815,-187500.0224,-187500.0224,0.338,-0.064,0.918,192,0,0,0,0,0,0,0,0,0,0
 2023-06-27 18:19:56.557,-187500.0224,-187500.0224,-187500.0224,-173539.3239,-185235.0754,-180108.1887,-187500.0224,-187500.0224,0.338,-0.064,0.918,192,0,0,0,0,0,0,0,0,0,0
 2023-06-27 18:19:56.557,-187500.0224,-187500.0224,-187500.0224,-174051.7377,-185972.5041,-181035.9202,-187500.0224,-187500.0224,0.338,-0.064,0.918,192,0,0,0,0,0,0,0,0,0,0
 2023-06-27 18:19:56.557,-187500.0224,-187500.0224,-187500.0224,-173718.5849,-185294.151,-180415.5922,-187500.0224,-187500.0224,0.342,-0.06,0.92,192,10,176,254,32,28,192,0,0,0,0
 2023-06-27 18:19:56.557,-187500.0224,-187500.0224,-187500.0224,-172936.2962,-184024.2367,-178985.4159,-187500.0224,-187500.0224,0.342,-0.06,0.92,192,0,0,0,0,0,0,0,0,0,0
 2023-06-27 18:19:56.557,-187500.0224,-187500.0224,-187500.0224,-172819.9554,-183971.5536,-178781.188,-187500.0224,-187500.0224,0.342,-0.06,0.92,192,0,0,0,0,0,0,0,0,0,0
 2023-06-27 18:19:56.557,-187500.0224,-187500.0224,-187500.0224,-173523.9906,-185209.9297,-180080.6066,-187500.0224,-187500.0224,0.342,-0.06,0.92,192,0,0,0,0,0,0,0,0,0,0
 2023-06-27 18:19:56.557,-187500.0224,-187500.0224,-187500.0224,-174047.3791,-185968.9055,-181029.997,-187500.0224,-187500.0224,0.342,-0.06,0.92,192,0,0,0,0,0,0,0,0,0,0
 2023-06-27 18:19:56.557,-187500.0224,-187500.0224,-187500.0224,-173729.5149,-185313.91,-180436.9382,-187500.0224,-187500.0224,0.342,-0.06,0.92,192,0,0,0,0,0,0,0,0,0,0
 2023-06-27 18:19:56.557,-187500.0224,-187500.0224,-187500.0224,-172944.3652,-184035.5243,-179000.6598,-187500.0224,-187500.0224,0.342,-0.06,0.92,192,0,0,0,0,0,0,0,0,0,0
 2023-06-27 18:19:56.557,-187500.0224,-187500.0224,-187500.0224,-172813.1381,-183958.1202,-178769.2969,-187500.0224,-187500.0224,0.342,-0.06,0.92,192,0,0,0,0,0,0,0,0,0,0
 2023-06-27 18:19:56.557,-187500.0224,-187500.0224,-187500.0224,-173508.5903,-185184.8287,-180052.8458,-187500.0224,-187500.0224,0.342,-0.06,0.92,192,0,0,0,0,0,0,0,0,0,0
 2023-06-27 18:19:56.557,-187500.0224,-187500.0224,-187500.0224,-174042.417,-185964.6363,-181023.4479,-187500.0224,-187500.0224,0.342,-0.06,0.92,192,0,0,0,0,0,0,0,0,0,0
 2023-06-27 18:19:56.557,-187500.0224,-187500.0224,-187500.0224,-173737.4051,-185329.7574,-180453.6126,-187500.0224,-187500.0224,0.344,-0.064,0.918,192,10,192,254,0,28,176,0,0,0,0
 2023-06-27 18:19:56.557,-187500.0224,-187500.0224,-187500.0224,-172948.7014,-184042.6322,-179010.5169,-187500.0224,-187500.0224,0.344,-0.064,0.918,192,0,0,0,0,0,0,0,0,0,0
 2023-06-27 18:19:56.557,-187500.0224,-187500.0224,-187500.0224,-172801.8952,-183940.1494,-178751.8848,-187500.0224,-187500.0224,0.344,-0.064,0.918,192,0,0,0,0,0,0,0,0,0,0
 2023-06-27 18:19:56.557,-187500.0224,-187500.0224,-187500.0224,-173489.4795,-185156.1737,-180020.771,-187500.0224,-187500.0224,0.344,-0.064,0.918,192,0,0,0,0,0,0,0,0,0,0
 2023-06-27 18:19:56.557,-187500.0224,-187500.0224,-187500.0224,-174035.0856,-185957.3944,-181012.7414,-187500.0224,-187500.0224,0.344,-0.064,0.918,192,0,0,0,0,0,0,0,0,0,0
 2023-06-27 18:19:56.557,-187500.0224,-187500.0224,-187500.0224,-173744.1106,-185345.0683,-180469.08,-187500.0224,-187500.0224,0.344,-0.064,0.918,192,0,0,0,0,0,0,0,0,0,0
 2023-06-27 18:19:56.557,-187500.0224,-187500.0224,-187500.0224,-172952.7918,-184050.4776,-179021.0446,-187500.0224,-187500.0224,0.344,-0.064,0.918,192,0,0,0,0,0,0,0,0,0,0
 2023-06-27 18:19:56.557,-187500.0224,-187500.0224,-187500.0224,-172794.385,-183926.0455,-178738.2279,-187500.0224,-187500.0224,0.344,-0.064,0.918,192,0,0,0,0,0,0,0,0,0,0
 2023-06-27 18:19:56.557,-187500.0224,-187500.0224,-187500.0224,-173472.8722,-185129.0164,-179989.8139,-187500.0224,-187500.0224,0.344,-0.064,0.918,192,0,0,0,0,0,0,0,0,0,0
 2023-06-27 18:19:56.557,-187500.0224,-187500.0224,-187500.0224,-174030.9505,-185952.8122,-181004.2925,-187500.0224,-187500.0224,0.344,-0.064,0.918,192,0,0,0,0,0,0,0,0,0,0
 2023-06-27 18:19:56.557,-187500.0224,-187500.0224,-187500.0224,-173752.4255,-185361.0498,-180484.4356,-187500.0224,-187500.0224,0.342,-0.066,0.922,192,10,176,253,240,28,208,0,0,0,0
 2023-06-27 18:19:56.557,-187500.0224,-187500.0224,-187500.0224,-172961.3972,-184062.5699,-179034.8356,-187500.0224,-187500.0224,0.342,-0.066,0.922,192,0,0,0,0,0,0,0,0,0,0
 2023-06-27 18:19:56.557,-187500.0224,-187500.0224,-187500.0224,-172788.1712,-183914.4226,-178726.7168,-187500.0224,-187500.0224,0.342,-0.066,0.922,192,0,0,0,0,0,0,0,0,0,0
 2023-06-27 18:19:56.557,-187500.0224,-187500.0224,-187500.0224,-173458.9918,-185106.307,-179963.2823,-187500.0224,-187500.0224,0.342,-0.066,0.922,192,0,0,0,0,0,0,0,0,0,0
 2023-06-27 18:19:56.557,-187500.0224,-187500.0224,-187500.0224,-174028.8718,-185951.4488,-180999.1739,-187500.0224,-187500.0224,0.342,-0.066,0.922,192,0,0,0,0,0,0,0,0,0,0
 2023-06-27 18:19:56.557,-187500.0224,-187500.0224,-187500.0224,-173764.4731,-185381.5911,-180504.5522,-187500.0224,-187500.0224,0.342,-0.066,0.922,192,0,0,0,0,0,0,0,0,0,0
 2023-06-27 18:19:56.557,-187500.0224,-187500.0224,-187500.0224,-172971.7014,-184077.5456,-179051.9794,-187500.0224,-187500.0224,0.342,-0.066,0.922,192,0,0,0,0,0,0,0,0,0,0
 2023-06-27 18:19:56.557,-187500.0224,-187500.0224,-187500.0224,-172788.0594,-183910.2428,-178723.0511,-187500.0224,-187500.0224,0.342,-0.066,0.922,192,0,0,0,0,0,0,0,0,0,0
 2023-06-27 18:19:56.557,-187500.0224,-187500.0224,-187500.0224,-173450.2746,-185089.7443,-179944.0598,-187500.0224,-187500.0224,0.342,-0.066,0.922,192,0,0,0,0,0,0,0,0,0,0
 2023-06-27 18:19:56.557,-187500.0224,-187500.0224,-187500.0224,-174027.8213,-185950.8453,-180995.9106,-187500.0224,-187500.0224,0.342,-0.066,0.922,192,0,0,0,0,0,0,0,0,0,0
 2023-06-27 18:19:56.557,-187500.0224,-187500.0224,-187500.0224,-173778.3088,-185403.1829,-180526.5687,-187500.0224,-187500.0224,0.342,-0.066,0.922,192,0,0,0,0,0,0,0,0,0,0
 2023-06-27 18:19:56.557,-187500.0224,-187500.0224,-187500.0224,-172979.5245,-184089.1014,-179066.2845,-187500.0224,-187500.0224,0.342,-0.066,0.92,192,10,176,253,240,28,192,0,0,0,0
 2023-06-27 18:19:56.557,-187500.0224,-187500.0224,-187500.0224,-172779.007,-183896.0047,-178709.5953,-187500.0224,-187500.0224,0.342,-0.066,0.92,192,0,0,0,0,0,0,0,0,0,0
 2023-06-27 18:19:56.557,-187500.0224,-187500.0224,-187500.0224,-173433.4214,-185064.6657,-179916.0978,-187500.0224,-187500.0224,0.342,-0.066,0.92,192,0,0,0,0,0,0,0,0,0,0
 2023-06-27 18:19:56.557,-187500.0224,-187500.0224,-187500.0224,-174023.5298,-185947.2467,-180989.6297,-187500.0224,-187500.0224,0.342,-0.066,0.92,192,0,0,0,0,0,0,0,0,0,0
 2023-06-27 18:19:56.557,-187500.0224,-187500.0224,-187500.0224,-173784.7014,-185417.9574,-180541.9467,-187500.0224,-187500.0224,0.342,-0.066,0.92,192,0,0,0,0,0,0,0,0,0,0
 2023-06-27 18:19:56.557,-187500.0224,-187500.0224,-187500.0224,-172987.0347,-184101.2831,-179081.3496,-187500.0224,-187500.0224,0.342,-0.066,0.92,192,0,0,0,0,0,0,0,0,0,0
 2023-06-27 18:19:56.557,-187500.0224,-187500.0224,-187500.0224,-172776.1683,-183888.7404,-178703.6945,-187500.0224,-187500.0224,0.342,-0.066,0.92,192,0,0,0,0,0,0,0,0,0,0
 2023-06-27 18:19:56.557,-187500.0224,-187500.0224,-187500.0224,-173416.4117,-185037.7318,-179886.5265,-187500.0224,-187500.0224,0.342,-0.066,0.92,192,0,0,0,0,0,0,0,0,0,0
 2023-06-27 18:19:56.557,-187500.0224,-187500.0224,-187500.0224,-174016.8242,-185939.9823,-180979.2138,-187500.0224,-187500.0224,0.342,-0.066,0.92,192,0,0,0,0,0,0,0,0,0,0
 2023-06-27 18:19:56.557,-187500.0224,-187500.0224,-187500.0224,-173795.4526,-185436.2411,-180560.0963,-187500.0224,-187500.0224,0.342,-0.066,0.92,192,0,0,0,0,0,0,0,0,0,0
 2023-06-27 18:19:56.557,-187500.0224,-187500.0224,-187500.0224,-172995.3719,-184114.0236,-179096.5711,-187500.0224,-187500.0224,0.346,-0.068,0.914,192,10,208,253,224,28,144,0,0,0,0
 2023-06-27 18:19:56.557,-187500.0224,-187500.0224,-187500.0224,-172769.2393,-183876.8269,-178692.5186,-187500.0224,-187500.0224,0.346,-0.068,0.914,192,0,0,0,0,0,0,0,0,0,0
 2023-06-27 18:19:56.557,-187500.0224,-187500.0224,-187500.0224,-173400.8325,-185012.7649,-179858.3633,-187500.0224,-187500.0224,0.346,-0.068,0.914,192,0,0,0,0,0,0,0,0,0,0
 2023-06-27 18:19:56.557,-187500.0224,-187500.0224,-187500.0224,-174014.7902,-185937.8142,-180973.6035,-187500.0224,-187500.0224,0.346,-0.068,0.914,192,0,0,0,0,0,0,0,0,0,0
 2023-06-27 18:19:56.557,-187500.0224,-187500.0224,-187500.0224,-173803.3427,-185451.8873,-180575.4072,-187500.0224,-187500.0224,0.346,-0.068,0.914,192,0,0,0,0,0,0,0,0,0,0
 2023-06-27 18:19:56.557,-187500.0224,-187500.0224,-187500.0224,-173004.9161,-184128.0605,-179112.8879,-187500.0224,-187500.0224,0.346,-0.068,0.914,192,0,0,0,0,0,0,0,0,0,0
 2023-06-27 18:19:56.557,-187500.0224,-187500.0224,-187500.0224,-172768.457,-183872.1107,-178688.5847,-187500.0224,-187500.0224,0.346,-0.068,0.914,192,0,0,0,0,0,0,0,0,0,0
 2023-06-27 18:19:56.557,-187500.0224,-187500.0224,-187500.0224,-173389.7014,-184993.2966,-179836.1233,-187500.0224,-187500.0224,0.346,-0.068,0.914,192,0,0,0,0,0,0,0,0,0,0
 2023-06-27 18:19:56.557,-187500.0224,-187500.0224,-187500.0224,-174009.6493,-185932.5169,-180965.2887,-187500.0224,-187500.0224,0.346,-0.068,0.914,192,0,0,0,0,0,0,0,0,0,0
 2023-06-27 18:19:56.557,-187500.0224,-187500.0224,-187500.0224,-173811.6576,-185467.7794,-180591.2993,-187500.0224,-187500.0224,0.346,-0.068,0.914,192,0,0,0,0,0,0,0,0,0,0
 2023-06-27 18:19:56.557,-187500.0224,-187500.0224,-187500.0224,-173015.779,-184143.8632,-179131.4398,-187500.0224,-187500.0224,0.346,-0.07,0.914,192,10,208,253,208,28,144,0,0,0,0
 2023-06-27 18:19:56.557,-187500.0224,-187500.0224,-187500.0224,-172766.6241,-183866.5898,-178684.5614,-187500.0224,-187500.0224,0.346,-0.07,0.914,192,0,0,0,0,0,0,0,0,0,0
 2023-06-27 18:19:56.557,-187500.0224,-187500.0224,-187500.0224,-173379.7772,-184975.8622,-179817.0796,-187500.0224,-187500.0224,0.346,-0.07,0.914,192,0,0,0,0,0,0,0,0,0,0
 2023-06-27 18:19:56.557,-187500.0224,-187500.0224,-187500.0224,-174009.0682,-185932.3828,-180963.4559,-187500.0224,-187500.0224,0.346,-0.07,0.914,192,0,0,0,0,0,0,0,0,0,0
 2023-06-27 18:19:56.557,-187500.0224,-187500.0224,-187500.0224,-173821.6041,-185485.1467,-180609.963,-187500.0224,-187500.0224,0.346,-0.07,0.914,192,0,0,0,0,0,0,0,0,0,0
 2023-06-27 18:19:56.557,-187500.0224,-187500.0224,-187500.0224,-173024.608,-184157.6095,-179148.7177,-187500.0224,-187500.0224,0.346,-0.07,0.914,192,0,0,0,0,0,0,0,0,0,0
 2023-06-27 18:19:56.557,-187500.0224,-187500.0224,-187500.0224,-172766.1771,-183863.6841,-178683.9132,-187500.0224,-187500.0224,0.346,-0.07,0.914,192,0,0,0,0,0,0,0,0,0,0
 2023-06-27 18:19:56.557,-187500.0224,-187500.0224,-187500.0224,-173377.5867,-184969.3131,-179810.8211,-187500.0224,-187500.0224,0.346,-0.07,0.914,192,0,0,0,0,0,0,0,0,0,0
 2023-06-27 18:19:56.557,-187500.0224,-187500.0224,-187500.0224,-174013.7174,-185937.8366,-180969.3567,-187500.0224,-187500.0224,0.346,-0.07,0.914,192,0,0,0,0,0,0,0,0,0,0
 2023-06-27 18:19:56.557,-187500.0224,-187500.0224,-187500.0224,-173836.2222,-185506.962,-180634.7064,-187500.0224,-187500.0224,0.346,-0.07,0.914,192,0,0,0,0,0,0,0,0,0,0
 2023-06-27 18:19:56.557,-187500.0224,-187500.0224,-187500.0224,-173037.2814,-184174.7757,-179171.3824,-187500.0224,-187500.0224,0.35,-0.068,0.922,192,10,240,253,224,28,208,0,0,0,0
 2023-06-27 18:19:56.557,-187500.0224,-187500.0224,-187500.0224,-172764.5901,-183858.7444,-178683.332,-187500.0224,-187500.0224,0.35,-0.068,0.922,192,0,0,0,0,0,0,0,0,0,0
 2023-06-27 18:19:56.557,-187500.0224,-187500.0224,-187500.0224,-173364.578,-184947.8108,-179789.9222,-187500.0224,-187500.0224,0.35,-0.068,0.922,192,0,0,0,0,0,0,0,0,0,0
 2023-06-27 18:19:56.557,-187500.0224,-187500.0224,-187500.0224,-174008.4647,-185931.3993,-180962.7853,-187500.0224,-187500.0224,0.35,-0.068,0.922,192,0,0,0,0,0,0,0,0,0,0
 2023-06-27 18:19:56.557,-187500.0224,-187500.0224,-187500.0224,-173844.0453,-185521.3789,-180651.7161,-187500.0224,-187500.0224,0.35,-0.068,0.922,192,0,0,0,0,0,0,0,0,0,0
 2023-06-27 18:19:56.557,-187500.0224,-187500.0224,-187500.0224,-173048.502,-184190.1537,-179191.8789,-187500.0224,-187500.0224,0.35,-0.068,0.922,192,0,0,0,0,0,0,0,0,0,0
 2023-06-27 18:19:56.558,-187500.0224,-187500.0224,-187500.0224,-172763.9196,-183852.7988,-178680.3816,-187500.0224,-187500.0224,0.35,-0.068,0.922,192,0,0,0,0,0,0,0,0,0,0
 2023-06-27 18:19:56.558,-187500.0224,-187500.0224,-187500.0224,-173349.9152,-184922.1733,-179763.2566,-187500.0224,-187500.0224,0.35,-0.068,0.922,192,0,0,0,0,0,0,0,0,0,0
 2023-06-27 18:19:56.558,-187500.0224,-187500.0224,-187500.0224,-174003.1673,-185923.6432,-180952.9282,-187500.0224,-187500.0224,0.35,-0.068,0.922,192,0,0,0,0,0,0,0,0,0,0
 2023-06-27 18:19:56.558,-187500.0224,-187500.0224,-187500.0224,-173855.6011,-185539.1485,-180669.9551,-187500.0224,-187500.0224,0.35,-0.068,0.922,192,0,0,0,0,0,0,0,0,0,0
 2023-06-27 18:19:56.558,-187500.0224,-187500.0224,-187500.0224,-173058.5603,-184204.8835,-179209.9391,-187500.0224,-187500.0224,0.35,-0.072,0.924,192,10,240,253,192,28,224,0,0,0,0
 2023-06-27 18:19:56.558,-187500.0224,-187500.0224,-187500.0224,-172761.5056,-183846.8309,-178676.7383,-187500.0224,-187500.0224,0.35,-0.072,0.924,192,0,0,0,0,0,0,0,0,0,0
 2023-06-27 18:19:56.558,-187500.0224,-187500.0224,-187500.0224,-173342.5839,-184906.9294,-179747.1633,-187500.0224,-187500.0224,0.35,-0.072,0.924,192,0,0,0,0,0,0,0,0,0,0
 2023-06-27 18:19:56.558,-187500.0224,-187500.0224,-187500.0224,-174001.7815,-185921.1845,-180949.1507,-187500.0224,-187500.0224,0.35,-0.072,0.924,192,0,0,0,0,0,0,0,0,0,0
 2023-06-27 18:19:56.558,-187500.0224,-187500.0224,-187500.0224,-173863.5583,-185553.856,-180685.9589,-187500.0224,-187500.0224,0.35,-0.072,0.924,192,0,0,0,0,0,0,0,0,0,0
 2023-06-27 18:19:56.558,-187500.0224,-187500.0224,-187500.0224,-173071.7701,-184222.966,-179232.0897,-187500.0224,-187500.0224,0.35,-0.072,0.924,192,0,0,0,0,0,0,0,0,0,0
 2023-06-27 18:19:56.558,-187500.0224,-187500.0224,-187500.0224,-172760.6786,-183841.1312,-178673.4749,-187500.0224,-187500.0224,0.35,-0.072,0.924,192,0,0,0,0,0,0,0,0,0,0
 2023-06-27 18:19:56.558,-187500.0224,-187500.0224,-187500.0224,-173326.9824,-184881.4484,-179720.1401,-187500.0224,-187500.0224,0.35,-0.072,0.924,192,0,0,0,0,0,0,0,0,0,0
 2023-06-27 18:19:56.558,-187500.0224,-187500.0224,-187500.0224,-173995.6348,-185913.9202,-180939.6512,-187500.0224,-187500.0224,0.35,-0.072,0.924,192,0,0,0,0,0,0,0,0,0,0
 2023-06-27 18:19:56.558,-187500.0224,-187500.0224,-187500.0224,-173871.8955,-185569.2563,-180702.0969,-187500.0224,-187500.0224,0.35,-0.072,0.924,192,0,0,0,0,0,0,0,0,0,0
 2023-06-27 18:19:56.558,-187500.0224,-187500.0224,-187500.0224,-173081.1132,-184238.0088,-179251.0664,-187500.0224,-187500.0224,0.348,-0.07,0.93,192,10,224,253,208,29,16,0,0,0,0
 2023-06-27 18:19:56.558,-187500.0224,-187500.0224,-187500.0224,-172758.5551,-183836.3479,-178671.575,-187500.0224,-187500.0224,0.348,-0.07,0.93,192,0,0,0,0,0,0,0,0,0,0
 2023-06-27 18:19:56.558,-187500.0224,-187500.0224,-187500.0224,-173314.8901,-184862.1142,-179700.7835,-187500.0224,-187500.0224,0.348,-0.07,0.93,192,0,0,0,0,0,0,0,0,0,0
 2023-06-27 18:19:56.558,-187500.0224,-187500.0224,-187500.0224,-173989.1975,-185906.9912,-180932.3199,-187500.0224,-187500.0224,0.348,-0.07,0.93,192,0,0,0,0,0,0,0,0,0,0
 2023-06-27 18:19:56.558,-187500.0224,-187500.0224,-187500.0224,-173880.0763,-185584.0532,-180719.0395,-187500.0224,-187500.0224,0.348,-0.07,0.93,192,0,0,0,0,0,0,0,0,0,0
 2023-06-27 18:19:56.558,-187500.0224,-187500.0224,-187500.0224,-173094.0548,-184256.2478,-179273.9098,-187500.0224,-187500.0224,0.348,-0.07,0.93,192,0,0,0,0,0,0,0,0,0,0
 2023-06-27 18:19:56.558,-187500.0224,-187500.0224,-187500.0224,-172758.1305,-183832.5481,-178671.1503,-187500.0224,-187500.0224,0.348,-0.07,0.93,192,0,0,0,0,0,0,0,0,0,0
 2023-06-27 18:19:56.558,-187500.0224,-187500.0224,-187500.0224,-173307.7599,-184847.0044,-179685.7631,-187500.0224,-187500.0224,0.348,-0.07,0.93,192,0,0,0,0,0,0,0,0,0,0
 2023-06-27 18:19:56.558,-187500.0224,-187500.0224,-187500.0224,-173990.9856,-185906.5218,-180931.0905,-187500.0224,-187500.0224,0.348,-0.07,0.93,192,0,0,0,0,0,0,0,0,0,0
 2023-06-27 18:19:56.558,-187500.0224,-187500.0224,-187500.0224,-173890.8945,-185600.6382,-180737.055,-187500.0224,-187500.0224,0.348,-0.07,0.93,192,0,0,0,0,0,0,0,0,0,0
 2023-06-27 18:19:56.558,-187500.0224,-187500.0224,-187500.0224,-173105.9236,-184273.6374,-179295.904,-187500.0224,-187500.0224,0.342,-0.074,0.922,192,10,176,253,176,28,208,0,0,0,0
 2023-06-27 18:19:56.558,-187500.0224,-187500.0224,-187500.0224,-172758.7116,-183829.3965,-178671.4409,-187500.0224,-187500.0224,0.342,-0.074,0.922,192,0,0,0,0,0,0,0,0,0,0
 2023-06-27 18:19:56.558,-187500.0224,-187500.0224,-187500.0224,-173293.4771,-184822.4845,-179660.7962,-187500.0224,-187500.0224,0.342,-0.074,0.922,192,0,0,0,0,0,0,0,0,0,0
 2023-06-27 18:19:56.558,-187500.0224,-187500.0224,-187500.0224,-173982.7155,-185896.62,-180919.5123,-187500.0224,-187500.0224,0.342,-0.074,0.922,192,0,0,0,0,0,0,0,0,0,0
 2023-06-27 18:19:56.558,-187500.0224,-187500.0224,-187500.0224,-173897.8236,-185614.2951,-180751.6731,-187500.0224,-187500.0224,0.342,-0.074,0.922,192,0,0,0,0,0,0,0,0,0,0
 2023-06-27 18:19:56.558,-187500.0224,-187500.0224,-187500.0224,-173116.0489,-184289.1719,-179315.2829,-187500.0224,-187500.0224,0.342,-0.074,0.922,192,0,0,0,0,0,0,0,0,0,0
 2023-06-27 18:19:56.558,-187500.0224,-187500.0224,-187500.0224,-172756.0517,-183822.8698,-178667.44,-187500.0224,-187500.0224,0.342,-0.074,0.922,192,0,0,0,0,0,0,0,0,0,0
 2023-06-27 18:19:57.036,-187500.0224,-187500.0224,-187500.0224,-173280.6025,-184800.4234,-179637.6174,-187500.0224,-187500.0224,0.342,-0.074,0.922,192,0,0,0,0,0,0,0,0,0,0
 2023-06-27 18:19:57.036,-187500.0224,-187500.0224,-187500.0224,-173978.8933,-185891.3002,-180912.2927,-187500.0224,-187500.0224,0.342,-0.074,0.922,192,0,0,0,0,0,0,0,0,0,0
 2023-06-27 18:19:57.036,-187500.0224,-187500.0224,-187500.0224,-173904.5961,-185626.6332,-180764.7935,-187500.0224,-187500.0224,0.342,-0.074,0.922,192,0,0,0,0,0,0,0,0,0,0
 2023-06-27 18:19:57.036,-187500.0224,-187500.0224,-187500.0224,-173126.2413,-184304.5276,-179334.3937,-187500.0224,-187500.0224,0.344,-0.07,0.922,192,10,192,253,208,28,208,0,0,0,0
 2023-06-27 18:19:57.036,-187500.0224,-187500.0224,-187500.0224,-172755.94,-183821.7969,-178669.6528,-187500.0224,-187500.0224,0.344,-0.07,0.922,192,0,0,0,0,0,0,0,0,0,0
 2023-06-27 18:19:57.036,-187500.0224,-187500.0224,-187500.0224,-173275.8416,-184789.851,-179628.1179,-187500.0224,-187500.0224,0.344,-0.07,0.922,192,0,0,0,0,0,0,0,0,0,0
 2023-06-27 18:19:57.036,-187500.0224,-187500.0224,-187500.0224,-173979.0722,-185889.9815,-180911.3092,-187500.0224,-187500.0224,0.344,-0.07,0.922,192,0,0,0,0,0,0,0,0,0,0
 2023-06-27 18:19:57.036,-187500.0224,-187500.0224,-187500.0224,-173916.4426,-185644.4029,-180784.9101,-187500.0224,-187500.0224,0.344,-0.07,0.922,192,0,0,0,0,0,0,0,0,0,0
 2023-06-27 18:19:57.036,-187500.0224,-187500.0224,-187500.0224,-173141.2394,-184325.0465,-179360.0535,-187500.0224,-187500.0224,0.344,-0.07,0.922,192,0,0,0,0,0,0,0,0,0,0
 2023-06-27 18:19:57.036,-187500.0224,-187500.0224,-187500.0224,-172759.4269,-183820.7017,-178672.3573,-187500.0224,-187500.0224,0.344,-0.07,0.922,192,0,0,0,0,0,0,0,0,0,0
 2023-06-27 18:19:57.036,-187500.0224,-187500.0224,-187500.0224,-173259.5248,-184762.3583,-179600.0888,-187500.0224,-187500.0224,0.344,-0.07,0.922,192,0,0,0,0,0,0,0,0,0,0
 2023-06-27 18:19:57.036,-187500.0224,-187500.0224,-187500.0224,-173968.4551,-185876.3246,-180895.7077,-187500.0224,-187500.0224,0.344,-0.07,0.922,192,0,0,0,0,0,0,0,0,0,0
 2023-06-27 18:19:57.036,-187500.0224,-187500.0224,-187500.0224,-173919.7283,-185653.1871,-180794.119,-187500.0224,-187500.0224,0.344,-0.07,0.922,192,0,0,0,0,0,0,0,0,0,0
 2023-06-27 18:19:57.036,-187500.0224,-187500.0224,-187500.0224,-173150.0012,-184339.7092,-179378.3819,-187500.0224,-187500.0224,0.346,-0.074,0.926,192,10,208,253,176,28,240,0,0,0,0
 2023-06-27 18:19:57.036,-187500.0224,-187500.0224,-187500.0224,-172755.8953,-183813.5268,-178667.954,-187500.0224,-187500.0224,0.346,-0.074,0.926,192,0,0,0,0,0,0,0,0,0,0
 2023-06-27 18:19:57.036,-187500.0224,-187500.0224,-187500.0224,-173246.6725,-184738.7102,-179575.4125,-187500.0224,-187500.0224,0.346,-0.074,0.926,192,0,0,0,0,0,0,0,0,0,0
 2023-06-27 18:19:57.036,-187500.0224,-187500.0224,-187500.0224,-173963.2024,-185868.3897,-180885.2918,-187500.0224,-187500.0224,0.346,-0.074,0.926,192,0,0,0,0,0,0,0,0,0,0
 2023-06-27 18:19:57.036,-187500.0224,-187500.0224,-187500.0224,-173926.4561,-185665.5923,-180806.4125,-187500.0224,-187500.0224,0.346,-0.074,0.926,192,0,0,0,0,0,0,0,0,0,0
 2023-06-27 18:19:57.036,-187500.0224,-187500.0224,-187500.0224,-173162.7417,-184358.507,-179400.4431,-187500.0224,-187500.0224,0.346,-0.074,0.926,192,0,0,0,0,0,0,0,0,0,0
 2023-06-27 18:19:57.036,-187500.0224,-187500.0224,-187500.0224,-172759.1586,-183814.7561,-178671.7315,-187500.0224,-187500.0224,0.346,-0.074,0.926,192,0,0,0,0,0,0,0,0,0,0
 2023-06-27 18:19:57.036,-187500.0224,-187500.0224,-187500.0224,-173236.5248,-184719.51,-179555.1171,-187500.0224,-187500.0224,0.346,-0.074,0.926,192,0,0,0,0,0,0,0,0,0,0
 2023-06-27 18:19:57.036,-187500.0224,-187500.0224,-187500.0224,-173959.8497,-185862.9359,-180877.4463,-187500.0224,-187500.0224,0.346,-0.074,0.926,192,0,0,0,0,0,0,0,0,0,0
 2023-06-27 18:19:57.036,-187500.0224,-187500.0224,-187500.0224,-173934.9498,-185680.0986,-180821.2317,-187500.0224,-187500.0224,0.346,-0.074,0.926,192,0,0,0,0,0,0,0,0,0,0
 2023-06-27 18:19:57.036,-187500.0224,-187500.0224,-187500.0224,-173171.9507,-184373.7733,-179418.9727,-187500.0224,-187500.0224,0.348,-0.07,0.924,192,10,224,253,208,28,224,0,0,0,0
 2023-06-27 18:19:57.036,-187500.0224,-187500.0224,-187500.0224,-172755.9623,-183809.1011,-178668.5799,-187500.0224,-187500.0224,0.348,-0.07,0.924,192,0,0,0,0,0,0,0,0,0,0
 2023-06-27 18:19:57.036,-187500.0224,-187500.0224,-187500.0224,-173222.6891,-184696.4877,-179531.3349,-187500.0224,-187500.0224,0.348,-0.07,0.924,192,0,0,0,0,0,0,0,0,0,0
 2023-06-27 18:19:57.036,-187500.0224,-187500.0224,-187500.0224,-173954.6417,-185855.448,-180867.9916,-187500.0224,-187500.0224,0.348,-0.07,0.924,192,0,0,0,0,0,0,0,0,0,0
 2023-06-27 18:19:57.036,-187500.0224,-187500.0224,-187500.0224,-173940.9177,-185692.0791,-180833.6146,-187500.0224,-187500.0224,0.348,-0.07,0.924,192,0,0,0,0,0,0,0,0,0,0
 2023-06-27 18:19:57.036,-187500.0224,-187500.0224,-187500.0224,-173183.0148,-184391.4088,-179440.3856,-187500.0224,-187500.0224,0.348,-0.07,0.924,192,0,0,0,0,0,0,0,0,0,0
 2023-06-27 18:19:57.036,-187500.0224,-187500.0224,-187500.0224,-172755.94,-183806.7095,-178669.4293,-187500.0224,-187500.0224,0.348,-0.07,0.924,192,0,0,0,0,0,0,0,0,0,0
 2023-06-27 18:19:57.036,-187500.0224,-187500.0224,-187500.0224,-173212.3179,-184677.6676,-179512.6265,-187500.0224,-187500.0224,0.348,-0.07,0.924,192,0,0,0,0,0,0,0,0,0,0
 2023-06-27 18:19:57.036,-187500.0224,-187500.0224,-187500.0224,-173950.1266,-185848.7872,-180860.0567,-187500.0224,-187500.0224,0.348,-0.07,0.924,192,0,0,0,0,0,0,0,0,0,0
 2023-06-27 18:19:57.036,-187500.0224,-187500.0224,-187500.0224,-173949.2996,-185705.8702,-180848.2103,-187500.0224,-187500.0224,0.348,-0.07,0.924,192,0,0,0,0,0,0,0,0,0,0
 2023-06-27 18:19:57.036,-187500.0224,-187500.0224,-187500.0224,-173197.4316,-184411.6371,-179464.6373,-187500.0224,-187500.0224,0.344,-0.068,0.922,192,10,192,253,224,28,208,0,0,0,0
 2023-06-27 18:19:57.036,-187500.0224,-187500.0224,-187500.0224,-172756.6105,-183804.8543,-178670.6586,-187500.0224,-187500.0224,0.344,-0.068,0.922,192,0,0,0,0,0,0,0,0,0,0
 2023-06-27 18:19:57.037,-187500.0224,-187500.0224,-187500.0224,-173199.7786,-184656.344,-179490.8112,-187500.0224,-187500.0224,0.344,-0.068,0.922,192,0,0,0,0,0,0,0,0,0,0
 2023-06-27 18:19:57.037,-187500.0224,-187500.0224,-187500.0224,-173942.7059,-185839.2654,-180848.8361,-187500.0224,-187500.0224,0.344,-0.068,0.922,192,0,0,0,0,0,0,0,0,0,0
 2023-06-27 18:19:57.037,-187500.0224,-187500.0224,-187500.0224,-173955.9828,-185718.2083,-180861.2637,-187500.0224,-187500.0224,0.344,-0.068,0.922,192,0,0,0,0,0,0,0,0,0,0
 2023-06-27 18:19:57.037,-187500.0224,-187500.0224,-187500.0224,-173209.8592,-184430.4796,-179487.369,-187500.0224,-187500.0224,0.344,-0.068,0.922,192,0,0,0,0,0,0,0,0,0,0
 2023-06-27 18:19:57.037,-187500.0224,-187500.0224,-187500.0224,-172757.9516,-183803.8038,-178672.9161,-187500.0224,-187500.0224,0.344,-0.068,0.922,192,0,0,0,0,0,0,0,0,0,0
 2023-06-27 18:19:57.037,-187500.0224,-187500.0224,-187500.0224,-173189.4297,-184636.3392,-179470.6722,-187500.0224,-187500.0224,0.344,-0.068,0.922,192,0,0,0,0,0,0,0,0,0,0
 2023-06-27 18:19:57.037,-187500.0224,-187500.0224,-187500.0224,-173936.9838,-185830.4588,-180838.2861,-187500.0224,-187500.0224,0.344,-0.068,0.922,192,0,0,0,0,0,0,0,0,0,0
 2023-06-27 18:19:57.037,-187500.0224,-187500.0224,-187500.0224,-173961.2578,-185728.736,-180872.2607,-187500.0224,-187500.0224,0.344,-0.068,0.922,192,0,0,0,0,0,0,0,0,0,0
 2023-06-27 18:19:57.037,-187500.0224,-187500.0224,-187500.0224,-173220.1187,-184446.707,-179507.1279,-187500.0224,-187500.0224,0.34,-0.064,0.922,192,10,160,254,0,28,208,0,0,0,0
 2023-06-27 18:19:57.037,-187500.0224,-187500.0224,-187500.0224,-172758.6893,-183802.1497,-178674.1678,-187500.0224,-187500.0224,0.34,-0.064,0.922,192,0,0,0,0,0,0,0,0,0,0
 2023-06-27 18:19:57.037,-187500.0224,-187500.0224,-187500.0224,-173177.7174,-184614.8592,-179448.3429,-187500.0224,-187500.0224,0.34,-0.064,0.922,192,0,0,0,0,0,0,0,0,0,0
 2023-06-27 18:19:57.037,-187500.0224,-187500.0224,-187500.0224,-173930.7477,-185821.3169,-180826.6408,-187500.0224,-187500.0224,0.34,-0.064,0.922,192,0,0,0,0,0,0,0,0,0,0
 2023-06-27 18:19:57.037,-187500.0224,-187500.0224,-187500.0224,-173969.7738,-185742.9294,-180886.5882,-187500.0224,-187500.0224,0.34,-0.064,0.922,192,0,0,0,0,0,0,0,0,0,0
 2023-06-27 18:19:57.037,-187500.0224,-187500.0224,-187500.0224,-173233.0156,-184466.8012,-179531.0443,-187500.0224,-187500.0224,0.34,-0.064,0.922,192,0,0,0,0,0,0,0,0,0,0
 2023-06-27 18:19:57.037,-187500.0224,-187500.0224,-187500.0224,-172760.5221,-183802.0156,-178677.2524,-187500.0224,-187500.0224,0.34,-0.064,0.922,192,0,0,0,0,0,0,0,0,0,0
 2023-06-27 18:19:57.037,-187500.0224,-187500.0224,-187500.0224,-173170.2072,-184600.5094,-179434.5295,-187500.0224,-187500.0224,0.34,-0.064,0.922,192,0,0,0,0,0,0,0,0,0,0
 2023-06-27 18:19:57.037,-187500.0224,-187500.0224,-187500.0224,-173928.1772,-185817.1148,-180822.1034,-187500.0224,-187500.0224,0.34,-0.064,0.922,192,0,0,0,0,0,0,0,0,0,0
 2023-06-27 18:19:57.037,-187500.0224,-187500.0224,-187500.0224,-173976.6805,-185755.6028,-180900.9604,-187500.0224,-187500.0224,0.34,-0.064,0.922,192,0,0,0,0,0,0,0,0,0,0
 2023-06-27 18:19:57.037,-187500.0224,-187500.0224,-187500.0224,-173245.622,-184486.4931,-179555.6089,-187500.0224,-187500.0224,0.34,-0.066,0.924,192,10,160,253,240,28,224,0,0,0,0
 2023-06-27 18:19:57.037,-187500.0224,-187500.0224,-187500.0224,-172761.4385,-183800.5404,-178679.9346,-187500.0224,-187500.0224,0.34,-0.066,0.924,192,0,0,0,0,0,0,0,0,0,0
 2023-06-27 18:19:57.037,-187500.0224,-187500.0224,-187500.0224,-173153.1752,-184571.318,-179405.2934,-187500.0224,-187500.0224,0.34,-0.066,0.924,192,0,0,0,0,0,0,0,0,0,0
 2023-06-27 18:19:57.037,-187500.0224,-187500.0224,-187500.0224,-173916.3085,-185800.4181,-180802.9033,-187500.0224,-187500.0224,0.34,-0.066,0.924,192,0,0,0,0,0,0,0,0,0,0
 2023-06-27 18:19:57.037,-187500.0224,-187500.0224,-187500.0224,-173977.3958,-185760.9672,-180905.9448,-187500.0224,-187500.0224,0.34,-0.066,0.924,192,0,0,0,0,0,0,0,0,0,0
 2023-06-27 18:19:57.037,-187500.0224,-187500.0224,-187500.0224,-173254.9427,-184502.117,-179574.2949,-187500.0224,-187500.0224,0.34,-0.066,0.924,192,0,0,0,0,0,0,0,0,0,0
 2023-06-27 18:19:57.037,-187500.0224,-187500.0224,-187500.0224,-172759.7174,-183796.4054,-178678.2806,-187500.0224,-187500.0224,0.34,-0.066,0.924,192,0,0,0,0,0,0,0,0,0,0
 2023-06-27 18:19:57.037,-187500.0224,-187500.0224,-187500.0224,-173137.8419,-184547.111,-179380.1477,-187500.0224,-187500.0224,0.34,-0.066,0.924,192,0,0,0,0,0,0,0,0,0,0
 2023-06-27 18:19:57.037,-187500.0224,-187500.0224,-187500.0224,-173908.1948,-185789.6445,-180789.7381,-187500.0224,-187500.0224,0.34,-0.066,0.924,192,0,0,0,0,0,0,0,0,0,0
 2023-06-27 18:19:57.037,-187500.0224,-187500.0224,-187500.0224,-173985.2859,-185774.6018,-180919.5347,-187500.0224,-187500.0224,0.34,-0.066,0.924,192,0,0,0,0,0,0,0,0,0,0
 2023-06-27 18:19:57.037,-187500.0224,-187500.0224,-187500.0224,-173267.2361,-184521.8983,-179597.496,-187500.0224,-187500.0224,0.336,-0.064,0.924,192,10,128,254,0,28,224,0,0,0,0
 2023-06-27 18:19:57.037,-187500.0224,-187500.0224,-187500.0224,-172758.3316,-183793.2761,-178678.37,-187500.0224,-187500.0224,0.336,-0.064,0.924,192,0,0,0,0,0,0,0,0,0,0
 2023-06-27 18:19:57.037,-187500.0224,-187500.0224,-187500.0224,-173125.0567,-184525.0499,-179358.0195,-187500.0224,-187500.0224,0.336,-0.064,0.924,192,0,0,0,0,0,0,0,0,0,0
 2023-06-27 18:19:57.037,-187500.0224,-187500.0224,-187500.0224,-173900.3717,-185777.9993,-180776.0812,-187500.0224,-187500.0224,0.336,-0.064,0.924,192,0,0,0,0,0,0,0,0,0,0
 2023-06-27 18:19:57.037,-187500.0224,-187500.0224,-187500.0224,-173990.6951,-185784.7718,-180929.7494,-187500.0224,-187500.0224,0.336,-0.064,0.924,192,0,0,0,0,0,0,0,0,0,0
 2023-06-27 18:19:57.037,-187500.0224,-187500.0224,-187500.0224,-173281.0272,-184542.976,-179622.2618,-187500.0224,-187500.0224,0.336,-0.064,0.924,192,0,0,0,0,0,0,0,0,0,0
 2023-06-27 18:19:57.037,-187500.0224,-187500.0224,-187500.0224,-172763.0255,-183796.2712,-178684.6508,-187500.0224,-187500.0224,0.336,-0.064,0.924,192,0,0,0,0,0,0,0,0,0,0
 2023-06-27 18:19:57.037,-187500.0224,-187500.0224,-187500.0224,-173117.2559,-184507.8167,-179340.4286,-187500.0224,-187500.0224,0.336,-0.064,0.924,192,0,0,0,0,0,0,0,0,0,0
 2023-06-27 18:19:57.037,-187500.0224,-187500.0224,-187500.0224,-173894.292,-185768.388,-180764.2124,-187500.0224,-187500.0224,0.336,-0.064,0.924,192,0,0,0,0,0,0,0,0,0,0
 2023-06-27 18:19:57.037,-187500.0224,-187500.0224,-187500.0224,-173994.8301,-185794.3831,-180939.5842,-187500.0224,-187500.0224,0.336,-0.064,0.924,192,0,0,0,0,0,0,0,0,0,0
 2023-06-27 18:19:57.037,-187500.0224,-187500.0224,-187500.0224,-173287.5762,-184556.6999,-179639.7185,-187500.0224,-187500.0224,0.344,-0.06,0.92,192,10,192,254,32,28,192,0,0,0,0
 2023-06-27 18:19:57.037,-187500.0224,-187500.0224,-187500.0224,-172758.5998,-183789.4093,-178681.0522,-187500.0224,-187500.0224,0.344,-0.06,0.92,192,0,0,0,0,0,0,0,0,0,0
 2023-06-27 18:19:57.037,-187500.0224,-187500.0224,-187500.0224,-173101.5874,-184482.5145,-179314.9923,-187500.0224,-187500.0224,0.344,-0.06,0.92,192,0,0,0,0,0,0,0,0,0,0
 2023-06-27 18:19:57.037,-187500.0224,-187500.0224,-187500.0224,-173883.4067,-185753.2559,-180746.6663,-187500.0224,-187500.0224,0.344,-0.06,0.92,192,0,0,0,0,0,0,0,0,0,0
 2023-06-27 18:19:57.037,-187500.0224,-187500.0224,-187500.0224,-174000.3063,-185804.4861,-180949.039,-187500.0224,-187500.0224,0.344,-0.06,0.92,192,0,0,0,0,0,0,0,0,0,0
 2023-06-27 18:19:57.037,-187500.0224,-187500.0224,-187500.0224,-173304.4965,-184581.5774,-179667.7476,-187500.0224,-187500.0224,0.344,-0.06,0.92,192,0,0,0,0,0,0,0,0,0,0
 2023-06-27 18:19:57.037,-187500.0224,-187500.0224,-187500.0224,-172763.0925,-183792.4938,-178687.0424,-187500.0224,-187500.0224,0.344,-0.06,0.92,192,0,0,0,0,0,0,0,0,0,0
 2023-06-27 18:19:57.037,-187500.0224,-187500.0224,-187500.0224,-173089.3833,-184460.2745,-179292.0148,-187500.0224,-187500.0224,0.344,-0.06,0.92,192,0,0,0,0,0,0,0,0,0,0
 2023-06-27 18:19:57.037,-187500.0224,-187500.0224,-187500.0224,-173873.0355,-185738.392,-180728.9861,-187500.0224,-187500.0224,0.344,-0.06,0.92,192,0,0,0,0,0,0,0,0,0,0
 2023-06-27 18:19:57.037,-187500.0224,-187500.0224,-187500.0224,-174002.385,-185811.281,-180955.2081,-187500.0224,-187500.0224,0.344,-0.06,0.92,192,0,0,0,0,0,0,0,0,0,0
 2023-06-27 18:19:57.037,-187500.0224,-187500.0224,-187500.0224,-173315.8512,-184601.0905,-179690.0993,-187500.0224,-187500.0224,0.342,-0.068,0.92,192,10,176,253,224,28,192,0,0,0,0
 2023-06-27 18:19:57.037,-187500.0224,-187500.0224,-187500.0224,-172766.2665,-183795.176,-178692.6304,-187500.0224,-187500.0224,0.342,-0.068,0.92,192,0,0,0,0,0,0,0,0,0,0
 2023-06-27 18:19:57.037,-187500.0224,-187500.0224,-187500.0224,-173081.8508,-184445.5,-179277.4638,-187500.0224,-187500.0224,0.342,-0.068,0.92,192,0,0,0,0,0,0,0,0,0,0
 2023-06-27 18:19:57.037,-187500.0224,-187500.0224,-187500.0224,-173868.4981,-185730.5689,-180719.7771,-187500.0224,-187500.0224,0.342,-0.068,0.92,192,0,0,0,0,0,0,0,0,0,0
 2023-06-27 18:19:57.037,-187500.0224,-187500.0224,-187500.0224,-174007.593,-185821.2052,-180965.4899,-187500.0224,-187500.0224,0.342,-0.068,0.92,192,0,0,0,0,0,0,0,0,0,0
 2023-06-27 18:19:57.037,-187500.0224,-187500.0224,-187500.0224,-173330.0222,-184623.2187,-179716.5414,-187500.0224,-187500.0224,0.342,-0.068,0.92,192,0,0,0,0,0,0,0,0,0,0
 2023-06-27 18:19:57.037,-187500.0224,-187500.0224,-187500.0224,-172765.9312,-183792.5161,-178694.0609,-187500.0224,-187500.0224,0.342,-0.068,0.92,192,0,0,0,0,0,0,0,0,0,0
 2023-06-27 18:19:57.037,-187500.0224,-187500.0224,-187500.0224,-173064.3494,-184416.4874,-179248.2053,-187500.0224,-187500.0224,0.342,-0.068,0.92,192,0,0,0,0,0,0,0,0,0,0
 2023-06-27 18:19:57.037,-187500.0224,-187500.0224,-187500.0224,-173854.193,-185710.8993,-180696.9113,-187500.0224,-187500.0224,0.342,-0.068,0.92,192,0,0,0,0,0,0,0,0,0,0
 2023-06-27 18:19:57.038,-187500.0224,-187500.0224,-187500.0224,-174012.5551,-185830.8164,-180974.2964,-187500.0224,-187500.0224,0.342,-0.068,0.92,192,0,0,0,0,0,0,0,0,0,0
 2023-06-27 18:19:57.038,-187500.0224,-187500.0224,-187500.0224,-173342.5168,-184643.9164,-179740.279,-187500.0224,-187500.0224,0.344,-0.066,0.918,192,10,192,253,240,28,176,0,0,0,0
 2023-06-27 18:19:57.038,-187500.0224,-187500.0224,-187500.0224,-172766.6018,-183792.7397,-178697.1231,-187500.0224,-187500.0224,0.344,-0.066,0.918,192,0,0,0,0,0,0,0,0,0,0
 2023-06-27 18:19:57.038,-187500.0224,-187500.0224,-187500.0224,-173054.8946,-184398.6508,-179230.2345,-187500.0224,-187500.0224,0.344,-0.066,0.918,192,0,0,0,0,0,0,0,0,0,0
 2023-06-27 18:19:57.038,-187500.0224,-187500.0224,-187500.0224,-173849.8567,-185702.0927,-180685.8919,-187500.0224,-187500.0224,0.344,-0.066,0.918,192,0,0,0,0,0,0,0,0,0,0
 2023-06-27 18:19:57.038,-187500.0224,-187500.0224,-187500.0224,-174016.6901,-185838.8407,-180981.8737,-187500.0224,-187500.0224,0.344,-0.066,0.918,192,0,0,0,0,0,0,0,0,0,0
 2023-06-27 18:19:57.038,-187500.0224,-187500.0224,-187500.0224,-173354.8103,-184663.4519,-179762.9437,-187500.0224,-187500.0224,0.344,-0.066,0.918,192,0,0,0,0,0,0,0,0,0,0
 2023-06-27 18:19:57.038,-187500.0224,-187500.0224,-187500.0224,-172772.4803,-183798.8417,-178706.9131,-187500.0224,-187500.0224,0.344,-0.066,0.918,192,0,0,0,0,0,0,0,0,0,0
 2023-06-27 18:19:57.038,-187500.0224,-187500.0224,-187500.0224,-173046.7362,-184383.8539,-179216.6894,-187500.0224,-187500.0224,0.344,-0.066,0.918,192,0,0,0,0,0,0,0,0,0,0
 2023-06-27 18:19:57.038,-187500.0224,-187500.0224,-187500.0224,-173843.3971,-185692.7274,-180676.1689,-187500.0224,-187500.0224,0.344,-0.066,0.918,192,0,0,0,0,0,0,0,0,0,0
 2023-06-27 18:19:57.038,-187500.0224,-187500.0224,-187500.0224,-174022.5686,-185849.5919,-180993.9436,-187500.0224,-187500.0224,0.344,-0.066,0.918,192,0,0,0,0,0,0,0,0,0,0
 2023-06-27 18:19:57.038,-187500.0224,-187500.0224,-187500.0224,-173369.6071,-184686.8765,-179791.4645,-187500.0224,-187500.0224,0.346,-0.062,0.92,192,10,208,254,16,28,192,0,0,0,0
 2023-06-27 18:19:57.038,-187500.0224,-187500.0224,-187500.0224,-172774.6037,-183799.5569,-178712.6128,-187500.0224,-187500.0224,0.346,-0.062,0.92,192,0,0,0,0,0,0,0,0,0,0
 2023-06-27 18:19:57.038,-187500.0224,-187500.0224,-187500.0224,-173034.2639,-184360.7869,-179194.7847,-187500.0224,-187500.0224,0.346,-0.062,0.92,192,0,0,0,0,0,0,0,0,0,0
 2023-06-27 18:19:57.038,-187500.0224,-187500.0224,-187500.0224,-173829.5166,-185672.6778,-180654.1077,-187500.0224,-187500.0224,0.346,-0.062,0.92,192,0,0,0,0,0,0,0,0,0,0
 2023-06-27 18:19:57.038,-187500.0224,-187500.0224,-187500.0224,-174023.9768,-185854.0846,-180998.1011,-187500.0224,-187500.0224,0.346,-0.062,0.92,192,0,0,0,0,0,0,0,0,0,0
 2023-06-27 18:19:57.038,-187500.0224,-187500.0224,-187500.0224,-173383.8005,-184708.5353,-179816.0738,-187500.0224,-187500.0224,0.346,-0.062,0.92,192,0,0,0,0,0,0,0,0,0,0
 2023-06-27 18:19:57.038,-187500.0224,-187500.0224,-187500.0224,-172779.3646,-183803.9155,-178720.4359,-187500.0224,-187500.0224,0.346,-0.062,0.92,192,0,0,0,0,0,0,0,0,0,0
 2023-06-27 18:19:57.038,-187500.0224,-187500.0224,-187500.0224,-173025.4573,-184343.5537,-179178.0879,-187500.0224,-187500.0224,0.346,-0.062,0.92,192,0,0,0,0,0,0,0,0,0,0
 2023-06-27 18:19:57.038,-187500.0224,-187500.0224,-187500.0224,-173819.5478,-185657.9257,-180637.7239,-187500.0224,-187500.0224,0.346,-0.062,0.92,192,0,0,0,0,0,0,0,0,0,0
 2023-06-27 18:19:57.038,-187500.0224,-187500.0224,-187500.0224,-174026.8825,-185861.2148,-181005.3654,-187500.0224,-187500.0224,0.346,-0.062,0.92,192,0,0,0,0,0,0,0,0,0,0
 2023-06-27 18:19:57.038,-187500.0224,-187500.0224,-187500.0224,-173396.9657,-184730.1942,-179841.823,-187500.0224,-187500.0224,0.348,-0.068,0.924,192,10,224,253,224,28,224,0,0,0,0
 2023-06-27 18:19:57.038,-187500.0224,-187500.0224,-187500.0224,-172782.315,-183806.6424,-178727.3203,-187500.0224,-187500.0224,0.348,-0.068,0.924,192,0,0,0,0,0,0,0,0,0,0
 2023-06-27 18:19:57.038,-187500.0224,-187500.0224,-187500.0224,-173013.2309,-184322.1854,-179157.6361,-187500.0224,-187500.0224,0.348,-0.068,0.924,192,0,0,0,0,0,0,0,0,0,0
 2023-06-27 18:19:57.038,-187500.0224,-187500.0224,-187500.0224,-173812.127,-185645.0734,-180622.86,-187500.0224,-187500.0224,0.348,-0.068,0.924,192,0,0,0,0,0,0,0,0,0,0
 2023-06-27 18:19:57.038,-187500.0224,-187500.0224,-187500.0224,-174031.107,-185869.2167,-181013.1214,-187500.0224,-187500.0224,0.348,-0.068,0.924,192,0,0,0,0,0,0,0,0,0,0
 2023-06-27 18:19:57.038,-187500.0224,-187500.0224,-187500.0224,-173409.9967,-184751.4954,-179866.6334,-187500.0224,-187500.0224,0.348,-0.068,0.924,192,0,0,0,0,0,0,0,0,0,0
 2023-06-27 18:19:57.038,-187500.0224,-187500.0224,-187500.0224,-172786.2713,-183810.2411,-178734.7411,-187500.0224,-187500.0224,0.348,-0.068,0.924,192,0,0,0,0,0,0,0,0,0,0
 2023-06-27 18:19:57.038,-187500.0224,-187500.0224,-187500.0224,-173003.7761,-184304.7734,-179140.984,-187500.0224,-187500.0224,0.348,-0.068,0.924,192,0,0,0,0,0,0,0,0,0,0
 2023-06-27 18:19:57.517,-187500.0224,-187500.0224,-187500.0224,-173803.0075,-185631.6177,-180608.1749,-187500.0224,-187500.0224,0.348,-0.068,0.924,192,0,0,0,0,0,0,0,0,0,0
 2023-06-27 18:19:57.517,-187500.0224,-187500.0224,-187500.0224,-174035.5327,-185877.7104,-181022.1068,-187500.0224,-187500.0224,0.348,-0.068,0.924,192,0,0,0,0,0,0,0,0,0,0
