 Timestamp (Formatted), EXG Channel 0, EXG Channel 1, EXG Channel 2, EXG Channel 3, EXG Channel 4, EXG Channel 5, EXG Channel 6, EXG Channel 7, Accel Channel 0, Accel Channel 1, Accel Channel 2, Other, Other.1, Other.2, Other.3, Other.4, Other.5, Other.6, Analog Channel 0, Analog Channel 1, Analog Channel 2, Other.7
 2023-06-27 18:18:07.735,-187500.0224,-187500.0224,-187500.0224,-177707.8125,-187500.0224,-184043.4815,-187500.0224,-187500.0224,0.338,-0.07,0.928,192,0,0,0,0,0,0,0,0,0,0
 2023-06-27 18:18:07.735,-187500.0224,-187500.0224,-187500.0224,-178163.5646,-187500.0224,-184862.5389,-187500.0224,-187500.0224,0.338,-0.07,0.928,192,0,0,0,0,0,0,0,0,0,0
 2023-06-27 18:18:07.735,-187500.0224,-187500.0224,-187500.0224,-177813.7151,-187500.0224,-184219.725,-187500.0224,-187500.0224,0.338,-0.07,0.928,192,0,0,0,0,0,0,0,0,0,0
 2023-06-27 18:18:07.735,-187500.0224,-187500.0224,-187500.0224,-177082.7236,-187500.0224,-182896.7029,-187500.0224,-187500.0224,0.338,-0.07,0.928,192,0,0,0,0,0,0,0,0,0,0
 2023-06-27 18:18:07.735,-187500.0224,-187500.0224,-187500.0224,-177014.4614,-187500.0224,-182777.4564,-187500.0224,-187500.0224,0.338,-0.07,0.928,192,0,0,0,0,0,0,0,0,0,0
 2023-06-27 18:18:07.735,-187500.0224,-187500.0224,-187500.0224,-177703.2304,-187500.0224,-184031.4116,-187500.0224,-187500.0224,0.338,-0.07,0.928,192,0,0,0,0,0,0,0,0,0,0
 2023-06-27 18:18:07.735,-187500.0224,-187500.0224,-187500.0224,-178164.5034,-187500.0224,-184862.8071,-187500.0224,-187500.0224,0.338,-0.07,0.928,192,0,0,0,0,0,0,0,0,0,0
 2023-06-27 18:18:07.735,-187500.0224,-187500.0224,-187500.0224,-177821.4488,-187500.0224,-184233.3373,-187500.0224,-187500.0224,0.338,-0.07,0.928,192,0,0,0,0,0,0,0,0,0,0
 2023-06-27 18:18:07.735,-187500.0224,-187500.0224,-187500.0224,-177087.2163,-187500.0224,-182905.0848,-187500.0224,-187500.0224,0.338,-0.07,0.928,192,0,0,0,0,0,0,0,0,0,0
 2023-06-27 18:18:07.735,-187500.0224,-187500.0224,-187500.0224,-177010.1922,-187500.0224,-182770.6167,-187500.0224,-187500.0224,0.346,-0.066,0.92,192,10,208,253,240,28,192,0,0,0,0
 2023-06-27 18:18:07.735,-187500.0224,-187500.0224,-187500.0224,-177693.9991,-187500.0224,-184016.9053,-187500.0224,-187500.0224,0.346,-0.066,0.92,192,0,0,0,0,0,0,0,0,0,0
 2023-06-27 18:18:07.735,-187500.0224,-187500.0224,-187500.0224,-178164.2575,-187500.0224,-184863.3212,-187500.0224,-187500.0224,0.346,-0.066,0.92,192,0,0,0,0,0,0,0,0,0,0
 2023-06-27 18:18:07.735,-187500.0224,-187500.0224,-187500.0224,-177828.6907,-187500.0224,-184248.2906,-187500.0224,-187500.0224,0.346,-0.066,0.92,192,0,0,0,0,0,0,0,0,0,0
 2023-06-27 18:18:07.735,-187500.0224,-187500.0224,-187500.0224,-177092.1561,-187500.0224,-182915.7466,-187500.0224,-187500.0224,0.346,-0.066,0.92,192,0,0,0,0,0,0,0,0,0,0
 2023-06-27 18:18:07.735,-187500.0224,-187500.0224,-187500.0224,-177010.6393,-187500.0224,-182769.7227,-187500.0224,-187500.0224,0.346,-0.066,0.92,192,0,0,0,0,0,0,0,0,0,0
 2023-06-27 18:18:07.735,-187500.0224,-187500.0224,-187500.0224,-177688.7688,-187500.0224,-184006.9141,-187500.0224,-187500.0224,0.346,-0.066,0.92,192,0,0,0,0,0,0,0,0,0,0
 2023-06-27 18:18:07.735,-187500.0224,-187500.0224,-187500.0224,-178167.342,-187500.0224,-184867.948,-187500.0224,-187500.0224,0.346,-0.066,0.92,192,0,0,0,0,0,0,0,0,0,0
 2023-06-27 18:18:07.735,-187500.0224,-187500.0224,-187500.0224,-177843.6441,-187500.0224,-184271.4246,-187500.0224,-187500.0224,0.346,-0.066,0.92,192,0,0,0,0,0,0,0,0,0,0
 2023-06-27 18:18:07.735,-187500.0224,-187500.0224,-187500.0224,-177105.1424,-187500.0224,-182934.5444,-187500.0224,-187500.0224,0.346,-0.066,0.92,192,0,0,0,0,0,0,0,0,0,0
 2023-06-27 18:18:07.735,-187500.0224,-187500.0224,-187500.0224,-177006.7053,-187500.0224,-182764.2688,-187500.0224,-187500.0224,0.34,-0.062,0.922,192,10,160,254,16,28,208,0,0,0,0
 2023-06-27 18:18:07.735,-187500.0224,-187500.0224,-187500.0224,-177681.4375,-187500.0224,-183994.1289,-187500.0224,-187500.0224,0.34,-0.062,0.922,192,0,0,0,0,0,0,0,0,0,0
 2023-06-27 18:18:08.212,-187500.0224,-187500.0224,-187500.0224,-178169.756,-187500.0224,-184871.2113,-187500.0224,-187500.0224,0.34,-0.062,0.922,192,0,0,0,0,0,0,0,0,0,0
 2023-06-27 18:18:08.212,-187500.0224,-187500.0224,-187500.0224,-177853.5459,-187500.0224,-184289.3284,-187500.0224,-187500.0224,0.34,-0.062,0.922,192,0,0,0,0,0,0,0,0,0,0
 2023-06-27 18:18:08.213,-187500.0224,-187500.0224,-187500.0224,-177112.675,-187500.0224,-182948.1566,-187500.0224,-187500.0224,0.34,-0.062,0.922,192,0,0,0,0,0,0,0,0,0,0
 2023-06-27 18:18:08.213,-187500.0224,-187500.0224,-187500.0224,-177009.1417,-187500.0224,-182765.8335,-187500.0224,-187500.0224,0.34,-0.062,0.922,192,0,0,0,0,0,0,0,0,0,0
 2023-06-27 18:18:08.213,-187500.0224,-187500.0224,-187500.0224,-177680.3646,-187500.0224,-183988.0939,-187500.0224,-187500.0224,0.34,-0.062,0.922,192,0,0,0,0,0,0,0,0,0,0
 2023-06-27 18:18:08.213,-187500.0224,-187500.0224,-187500.0224,-178174.6287,-187500.0224,-184877.7827,-187500.0224,-187500.0224,0.34,-0.062,0.922,192,0,0,0,0,0,0,0,0,0,0
 2023-06-27 18:18:08.213,-187500.0224,-187500.0224,-187500.0224,-177863.6265,-187500.0224,-184307.9027,-187500.0224,-187500.0224,0.34,-0.062,0.922,192,0,0,0,0,0,0,0,0,0,0
 2023-06-27 18:18:08.213,-187500.0224,-187500.0224,-187500.0224,-177119.3805,-187500.0224,-182961.7242,-187500.0224,-187500.0224,0.34,-0.062,0.922,192,0,0,0,0,0,0,0,0,0,0
 2023-06-27 18:18:08.213,-187500.0224,-187500.0224,-187500.0224,-177005.9677,-187500.0224,-182762.4584,-187500.0224,-187500.0224,0.336,-0.064,0.924,192,10,128,254,0,28,224,0,0,0,0
 2023-06-27 18:18:08.213,-187500.0224,-187500.0224,-187500.0224,-177671.178,-187500.0224,-183974.9064,-187500.0224,-187500.0224,0.336,-0.064,0.924,192,0,0,0,0,0,0,0,0,0,0
 2023-06-27 18:18:08.213,-187500.0224,-187500.0224,-187500.0224,-178173.5782,-187500.0224,-184879.4368,-187500.0224,-187500.0224,0.336,-0.064,0.924,192,0,0,0,0,0,0,0,0,0,0
 2023-06-27 18:18:08.213,-187500.0224,-187500.0224,-187500.0224,-177874.0201,-187500.0224,-184327.8181,-187500.0224,-187500.0224,0.336,-0.064,0.924,192,0,0,0,0,0,0,0,0,0,0
 2023-06-27 18:18:08.213,-187500.0224,-187500.0224,-187500.0224,-177131.5398,-187500.0224,-182981.9748,-187500.0224,-187500.0224,0.336,-0.064,0.924,192,0,0,0,0,0,0,0,0,0,0
 2023-06-27 18:18:08.213,-187500.0224,-187500.0224,-187500.0224,-177014.439,-187500.0224,-182772.6955,-187500.0224,-187500.0224,0.336,-0.064,0.924,192,0,0,0,0,0,0,0,0,0,0
 2023-06-27 18:18:08.213,-187500.0224,-187500.0224,-187500.0224,-177674.5084,-187500.0224,-183977.2533,-187500.0224,-187500.0224,0.336,-0.064,0.924,192,0,0,0,0,0,0,0,0,0,0
 2023-06-27 18:18:08.213,-187500.0224,-187500.0224,-187500.0224,-178183.033,-187500.0224,-184893.6972,-187500.0224,-187500.0224,0.336,-0.064,0.924,192,0,0,0,0,0,0,0,0,0,0
 2023-06-27 18:18:08.213,-187500.0224,-187500.0224,-187500.0224,-177890.918,-187500.0224,-184355.9813,-187500.0224,-187500.0224,0.336,-0.064,0.924,192,0,0,0,0,0,0,0,0,0,0
 2023-06-27 18:18:08.213,-187500.0224,-187500.0224,-187500.0224,-177144.0121,-187500.0224,-183003.9466,-187500.0224,-187500.0224,0.336,-0.064,0.924,192,0,0,0,0,0,0,0,0,0,0
 2023-06-27 18:18:08.213,-187500.0224,-187500.0224,-187500.0224,-177015.5119,-187500.0224,-182776.1153,-187500.0224,-187500.0224,0.34,-0.064,0.926,192,10,160,254,0,28,240,0,0,0,0
 2023-06-27 18:18:08.213,-187500.0224,-187500.0224,-187500.0224,-177671.8709,-187500.0224,-183972.8947,-187500.0224,-187500.0224,0.34,-0.064,0.926,192,0,0,0,0,0,0,0,0,0,0
 2023-06-27 18:18:08.213,-187500.0224,-187500.0224,-187500.0224,-178188.0397,-187500.0224,-184903.3755,-187500.0224,-187500.0224,0.34,-0.064,0.926,192,0,0,0,0,0,0,0,0,0,0
 2023-06-27 18:18:08.213,-187500.0224,-187500.0224,-187500.0224,-177903.6138,-187500.0224,-184380.2553,-187500.0224,-187500.0224,0.34,-0.064,0.926,192,0,0,0,0,0,0,0,0,0,0
 2023-06-27 18:18:08.213,-187500.0224,-187500.0224,-187500.0224,-177157.7361,-187500.0224,-183028.1312,-187500.0224,-187500.0224,0.34,-0.064,0.926,192,0,0,0,0,0,0,0,0,0,0
 2023-06-27 18:18:08.213,-187500.0224,-187500.0224,-187500.0224,-177022.9104,-187500.0224,-182788.0511,-187500.0224,-187500.0224,0.34,-0.064,0.926,192,0,0,0,0,0,0,0,0,0,0
 2023-06-27 18:18:08.213,-187500.0224,-187500.0224,-187500.0224,-177674.1955,-187500.0224,-183977.5215,-187500.0224,-187500.0224,0.34,-0.064,0.926,192,0,0,0,0,0,0,0,0,0,0
 2023-06-27 18:18:08.213,-187500.0224,-187500.0224,-187500.0224,-178196.1981,-187500.0224,-184919.0217,-187500.0224,-187500.0224,0.34,-0.064,0.926,192,0,0,0,0,0,0,0,0,0,0
 2023-06-27 18:18:08.213,-187500.0224,-187500.0224,-187500.0224,-177921.9869,-187500.0224,-184413.2688,-187500.0224,-187500.0224,0.34,-0.064,0.926,192,0,0,0,0,0,0,0,0,0,0
 2023-06-27 18:18:08.213,-187500.0224,-187500.0224,-187500.0224,-177170.7895,-187500.0224,-183054.238,-187500.0224,-187500.0224,0.34,-0.064,0.926,192,0,0,0,0,0,0,0,0,0,0
 2023-06-27 18:18:08.213,-187500.0224,-187500.0224,-187500.0224,-177025.1232,-187500.0224,-182795.4495,-187500.0224,-187500.0224,0.338,-0.066,0.928,192,10,144,253,240,29,0,0,0,0,0
 2023-06-27 18:18:08.213,-187500.0224,-187500.0224,-187500.0224,-177668.3617,-187500.0224,-183969.9219,-187500.0224,-187500.0224,0.338,-0.066,0.928,192,0,0,0,0,0,0,0,0,0,0
 2023-06-27 18:18:08.213,-187500.0224,-187500.0224,-187500.0224,-178199.2603,-187500.0224,-184928.2977,-187500.0224,-187500.0224,0.338,-0.066,0.928,192,0,0,0,0,0,0,0,0,0,0
 2023-06-27 18:18:08.213,-187500.0224,-187500.0224,-187500.0224,-177933.9675,-187500.0224,-184439.6215,-187500.0224,-187500.0224,0.338,-0.066,0.928,192,0,0,0,0,0,0,0,0,0,0
 2023-06-27 18:18:08.213,-187500.0224,-187500.0224,-187500.0224,-177186.3463,-187500.0224,-183084.0553,-187500.0224,-187500.0224,0.338,-0.066,0.928,192,0,0,0,0,0,0,0,0,0,0
 2023-06-27 18:18:08.213,-187500.0224,-187500.0224,-187500.0224,-177033.7733,-187500.0224,-182811.431,-187500.0224,-187500.0224,0.338,-0.066,0.928,192,0,0,0,0,0,0,0,0,0,0
 2023-06-27 18:18:08.213,-187500.0224,-187500.0224,-187500.0224,-177676.4754,-187500.0224,-183981.1425,-187500.0224,-187500.0224,0.338,-0.066,0.928,192,0,0,0,0,0,0,0,0,0,0
 2023-06-27 18:18:08.213,-187500.0224,-187500.0224,-187500.0224,-178217.3652,-187500.0224,-184956.4162,-187500.0224,-187500.0224,0.338,-0.066,0.928,192,0,0,0,0,0,0,0,0,0,0
 2023-06-27 18:18:08.213,-187500.0224,-187500.0224,-187500.0224,-177958.5991,-187500.0224,-184481.6651,-187500.0224,-187500.0224,0.338,-0.066,0.928,192,0,0,0,0,0,0,0,0,0,0
 2023-06-27 18:18:08.213,-187500.0224,-187500.0224,-187500.0224,-177208.8545,-187500.0224,-183123.059,-187500.0224,-187500.0224,0.338,-0.066,0.928,192,0,0,0,0,0,0,0,0,0,0
 2023-06-27 18:18:08.213,-187500.0224,-187500.0224,-187500.0224,-177048.1008,-187500.0224,-182835.6827,-187500.0224,-187500.0224,0.34,-0.066,0.92,192,10,160,253,240,28,192,0,0,0,0
 2023-06-27 18:18:08.213,-187500.0224,-187500.0224,-187500.0224,-177684.8796,-187500.0224,-183994.7994,-187500.0224,-187500.0224,0.34,-0.066,0.92,192,0,0,0,0,0,0,0,0,0,0
 2023-06-27 18:18:08.213,-187500.0224,-187500.0224,-187500.0224,-178229.8822,-187500.0224,-184979.9526,-187500.0224,-187500.0224,0.34,-0.066,0.92,192,0,0,0,0,0,0,0,0,0,0
 2023-06-27 18:18:08.213,-187500.0224,-187500.0224,-187500.0224,-177980.4367,-187500.0224,-184521.6748,-187500.0224,-187500.0224,0.34,-0.066,0.92,192,0,0,0,0,0,0,0,0,0,0
 2023-06-27 18:18:08.213,-187500.0224,-187500.0224,-187500.0224,-177228.3229,-187500.0224,-183159.6712,-187500.0224,-187500.0224,0.34,-0.066,0.92,192,0,0,0,0,0,0,0,0,0,0
 2023-06-27 18:18:08.213,-187500.0224,-187500.0224,-187500.0224,-177056.9968,-187500.0224,-182854.4805,-187500.0224,-187500.0224,0.34,-0.066,0.92,192,0,0,0,0,0,0,0,0,0,0
 2023-06-27 18:18:08.213,-187500.0224,-187500.0224,-187500.0224,-177685.1925,-187500.0224,-184000.8344,-187500.0224,-187500.0224,0.34,-0.066,0.92,192,0,0,0,0,0,0,0,0,0,0
 2023-06-27 18:18:08.213,-187500.0224,-187500.0224,-187500.0224,-178240.9687,-187500.0224,-185002.0584,-187500.0224,-187500.0224,0.34,-0.066,0.92,192,0,0,0,0,0,0,0,0,0,0
 2023-06-27 18:18:08.213,-187500.0224,-187500.0224,-187500.0224,-178001.2686,-187500.0224,-184559.8292,-187500.0224,-187500.0224,0.34,-0.066,0.92,192,0,0,0,0,0,0,0,0,0,0
 2023-06-27 18:18:08.213,-187500.0224,-187500.0224,-187500.0224,-177248.2606,-187500.0224,-183195.434,-187500.0224,-187500.0224,0.34,-0.066,0.92,192,0,0,0,0,0,0,0,0,0,0
 2023-06-27 18:18:08.213,-187500.0224,-187500.0224,-187500.0224,-177066.8762,-187500.0224,-182872.5183,-187500.0224,-187500.0224,0.34,-0.066,0.916,192,10,160,253,240,28,160,0,0,0,0
 2023-06-27 18:18:08.213,-187500.0224,-187500.0224,-187500.0224,-177686.8242,-187500.0224,-184004.4777,-187500.0224,-187500.0224,0.34,-0.066,0.916,192,0,0,0,0,0,0,0,0,0,0
 2023-06-27 18:18:08.213,-187500.0224,-187500.0224,-187500.0224,-178248.7024,-187500.0224,-185017.2129,-187500.0224,-187500.0224,0.34,-0.066,0.916,192,0,0,0,0,0,0,0,0,0,0
 2023-06-27 18:18:08.213,-187500.0224,-187500.0224,-187500.0224,-178016.803,-187500.0224,-184588.8865,-187500.0224,-187500.0224,0.34,-0.066,0.916,192,0,0,0,0,0,0,0,0,0,0
 2023-06-27 18:18:08.213,-187500.0224,-187500.0224,-187500.0224,-177259.3248,-187500.0224,-183218.1657,-187500.0224,-187500.0224,0.34,-0.066,0.916,192,0,0,0,0,0,0,0,0,0,0
 2023-06-27 18:18:08.213,-187500.0224,-187500.0224,-187500.0224,-177065.6916,-187500.0224,-182874.3065,-187500.0224,-187500.0224,0.34,-0.066,0.916,192,0,0,0,0,0,0,0,0,0,0
 2023-06-27 18:18:08.213,-187500.0224,-187500.0224,-187500.0224,-177680.1858,-187500.0224,-183994.7994,-187500.0224,-187500.0224,0.34,-0.066,0.916,192,0,0,0,0,0,0,0,0,0,0
 2023-06-27 18:18:08.213,-187500.0224,-187500.0224,-187500.0224,-178249.5741,-187500.0224,-185021.0127,-187500.0224,-187500.0224,0.34,-0.066,0.916,192,0,0,0,0,0,0,0,0,0,0
 2023-06-27 18:18:08.213,-187500.0224,-187500.0224,-187500.0224,-178024.5591,-187500.0224,-184606.2091,-187500.0224,-187500.0224,0.34,-0.066,0.916,192,0,0,0,0,0,0,0,0,0,0
 2023-06-27 18:18:08.213,-187500.0224,-187500.0224,-187500.0224,-177271.0147,-187500.0224,-183238.1258,-187500.0224,-187500.0224,0.34,-0.066,0.916,192,0,0,0,0,0,0,0,0,0,0
 2023-06-27 18:18:08.213,-187500.0224,-187500.0224,-187500.0224,-177067.5468,-187500.0224,-182876.5193,-187500.0224,-187500.0224,0.344,-0.066,0.916,192,10,192,253,240,28,160,0,0,0,0
 2023-06-27 18:18:08.213,-187500.0224,-187500.0224,-187500.0224,-177672.385,-187500.0224,-183981.1202,-187500.0224,-187500.0224,0.344,-0.066,0.916,192,0,0,0,0,0,0,0,0,0,0
 2023-06-27 18:18:08.213,-187500.0224,-187500.0224,-187500.0224,-178245.6625,-187500.0224,-185016.2071,-187500.0224,-187500.0224,0.344,-0.066,0.916,192,0,0,0,0,0,0,0,0,0,0
 2023-06-27 18:18:08.213,-187500.0224,-187500.0224,-187500.0224,-178031.1752,-187500.0224,-184618.3908,-187500.0224,-187500.0224,0.344,-0.066,0.916,192,0,0,0,0,0,0,0,0,0,0
 2023-06-27 18:18:08.213,-187500.0224,-187500.0224,-187500.0224,-177274.5687,-187500.0224,-183245.7031,-187500.0224,-187500.0224,0.344,-0.066,0.916,192,0,0,0,0,0,0,0,0,0,0
 2023-06-27 18:18:08.213,-187500.0224,-187500.0224,-187500.0224,-177063.9035,-187500.0224,-182868.1598,-187500.0224,-187500.0224,0.344,-0.066,0.916,192,0,0,0,0,0,0,0,0,0,0
 2023-06-27 18:18:08.214,-187500.0224,-187500.0224,-187500.0224,-177660.3151,-187500.0224,-183957.8744,-187500.0224,-187500.0224,0.344,-0.066,0.916,192,0,0,0,0,0,0,0,0,0,0
 2023-06-27 18:18:08.214,-187500.0224,-187500.0224,-187500.0224,-178238.3088,-187500.0224,-185003.6007,-187500.0224,-187500.0224,0.344,-0.066,0.916,192,0,0,0,0,0,0,0,0,0,0
 2023-06-27 18:18:08.214,-187500.0224,-187500.0224,-187500.0224,-178030.5046,-187500.0224,-184619.2625,-187500.0224,-187500.0224,0.344,-0.066,0.916,192,0,0,0,0,0,0,0,0,0,0
 2023-06-27 18:18:08.214,-187500.0224,-187500.0224,-187500.0224,-177271.3724,-187500.0224,-183242.7079,-187500.0224,-187500.0224,0.344,-0.066,0.916,192,0,0,0,0,0,0,0,0,0,0
 2023-06-27 18:18:08.214,-187500.0224,-187500.0224,-187500.0224,-177048.7713,-187500.0224,-182845.6739,-187500.0224,-187500.0224,0.342,-0.062,0.916,192,10,176,254,16,28,160,0,0,0,0
 2023-06-27 18:18:08.214,-187500.0224,-187500.0224,-187500.0224,-177640.8914,-187500.0224,-183925.9561,-187500.0224,-187500.0224,0.342,-0.062,0.916,192,0,0,0,0,0,0,0,0,0,0
 2023-06-27 18:18:08.214,-187500.0224,-187500.0224,-187500.0224,-178229.0999,-187500.0224,-184986.9263,-187500.0224,-187500.0224,0.342,-0.062,0.916,192,0,0,0,0,0,0,0,0,0,0
 2023-06-27 18:18:08.214,-187500.0224,-187500.0224,-187500.0224,-178026.526,-187500.0224,-184614.0545,-187500.0224,-187500.0224,0.342,-0.062,0.916,192,0,0,0,0,0,0,0,0,0,0
 2023-06-27 18:18:08.214,-187500.0224,-187500.0224,-187500.0224,-177267.7514,-187500.0224,-183237.4553,-187500.0224,-187500.0224,0.342,-0.062,0.916,192,0,0,0,0,0,0,0,0,0,0
 2023-06-27 18:18:08.214,-187500.0224,-187500.0224,-187500.0224,-177037.2378,-187500.0224,-182825.4679,-187500.0224,-187500.0224,0.342,-0.062,0.916,192,0,0,0,0,0,0,0,0,0,0
 2023-06-27 18:18:08.214,-187500.0224,-187500.0224,-187500.0224,-177624.1946,-187500.0224,-183896.0494,-187500.0224,-187500.0224,0.342,-0.062,0.916,192,0,0,0,0,0,0,0,0,0,0
 2023-06-27 18:18:08.214,-187500.0224,-187500.0224,-187500.0224,-178218.1475,-187500.0224,-184968.1509,-187500.0224,-187500.0224,0.342,-0.062,0.916,192,0,0,0,0,0,0,0,0,0,0
 2023-06-27 18:18:08.214,-187500.0224,-187500.0224,-187500.0224,-178029.1412,-187500.0224,-184615.9768,-187500.0224,-187500.0224,0.342,-0.062,0.916,192,0,0,0,0,0,0,0,0,0,0
 2023-06-27 18:18:08.214,-187500.0224,-187500.0224,-187500.0224,-177268.2431,-187500.0224,-183236.6059,-187500.0224,-187500.0224,0.342,-0.062,0.916,192,0,0,0,0,0,0,0,0,0,0
 2023-06-27 18:18:08.214,-187500.0224,-187500.0224,-187500.0224,-177027.7607,-187500.0224,-182807.0277,-187500.0224,-187500.0224,0.342,-0.064,0.916,192,10,176,254,0,28,160,0,0,0,0
 2023-06-27 18:18:08.214,-187500.0224,-187500.0224,-187500.0224,-177608.3025,-187500.0224,-183865.5616,-187500.0224,-187500.0224,0.342,-0.064,0.916,192,0,0,0,0,0,0,0,0,0,0
 2023-06-27 18:18:08.214,-187500.0224,-187500.0224,-187500.0224,-178206.6587,-187500.0224,-184947.252,-187500.0224,-187500.0224,0.342,-0.064,0.916,192,0,0,0,0,0,0,0,0,0,0
 2023-06-27 18:18:08.214,-187500.0224,-187500.0224,-187500.0224,-178025.1626,-187500.0224,-184610.0312,-187500.0224,-187500.0224,0.342,-0.064,0.916,192,0,0,0,0,0,0,0,0,0,0
 2023-06-27 18:18:08.214,-187500.0224,-187500.0224,-187500.0224,-177266.0973,-187500.0224,-183232.4261,-187500.0224,-187500.0224,0.342,-0.064,0.916,192,0,0,0,0,0,0,0,0,0,0
 2023-06-27 18:18:08.214,-187500.0224,-187500.0224,-187500.0224,-177016.3389,-187500.0224,-182786.263,-187500.0224,-187500.0224,0.342,-0.064,0.916,192,0,0,0,0,0,0,0,0,0,0
 2023-06-27 18:18:08.214,-187500.0224,-187500.0224,-187500.0224,-177588.0519,-187500.0224,-183829.933,-187500.0224,-187500.0224,0.342,-0.064,0.916,192,0,0,0,0,0,0,0,0,0,0
 2023-06-27 18:18:08.214,-187500.0224,-187500.0224,-187500.0224,-178194.4547,-187500.0224,-184925.6155,-187500.0224,-187500.0224,0.342,-0.064,0.916,192,0,0,0,0,0,0,0,0,0,0
 2023-06-27 18:18:08.214,-187500.0224,-187500.0224,-187500.0224,-178022.1451,-187500.0224,-184604.8903,-187500.0224,-187500.0224,0.342,-0.064,0.916,192,0,0,0,0,0,0,0,0,0,0
 2023-06-27 18:18:08.214,-187500.0224,-187500.0224,-187500.0224,-177262.2528,-187500.0224,-183226.57,-187500.0224,-187500.0224,0.342,-0.064,0.916,192,0,0,0,0,0,0,0,0,0,0
 2023-06-27 18:18:08.214,-187500.0224,-187500.0224,-187500.0224,-177005.1631,-187500.0224,-182766.124,-187500.0224,-187500.0224,0.346,-0.064,0.912,192,10,208,254,0,28,128,0,0,0,0
 2023-06-27 18:18:08.214,-187500.0224,-187500.0224,-187500.0224,-177571.5563,-187500.0224,-183799.9369,-187500.0224,-187500.0224,0.346,-0.064,0.912,192,0,0,0,0,0,0,0,0,0,0
 2023-06-27 18:18:08.214,-187500.0224,-187500.0224,-187500.0224,-178182.9435,-187500.0224,-184905.4095,-187500.0224,-187500.0224,0.346,-0.064,0.912,192,0,0,0,0,0,0,0,0,0,0
 2023-06-27 18:18:08.214,-187500.0224,-187500.0224,-187500.0224,-178019.597,-187500.0224,-184601.1799,-187500.0224,-187500.0224,0.346,-0.064,0.912,192,0,0,0,0,0,0,0,0,0,0
 2023-06-27 18:18:08.214,-187500.0224,-187500.0224,-187500.0224,-177261.3364,-187500.0224,-183225.0054,-187500.0224,-187500.0224,0.346,-0.064,0.912,192,0,0,0,0,0,0,0,0,0,0
 2023-06-27 18:18:08.214,-187500.0224,-187500.0224,-187500.0224,-176995.5518,-187500.0224,-182749.1814,-187500.0224,-187500.0224,0.346,-0.064,0.912,192,0,0,0,0,0,0,0,0,0,0
 2023-06-27 18:18:08.214,-187500.0224,-187500.0224,-187500.0224,-177558.1005,-187500.0224,-183774.4559,-187500.0224,-187500.0224,0.346,-0.064,0.912,192,0,0,0,0,0,0,0,0,0,0
 2023-06-27 18:18:08.214,-187500.0224,-187500.0224,-187500.0224,-178176.3498,-187500.0224,-184892.6243,-187500.0224,-187500.0224,0.346,-0.064,0.912,192,0,0,0,0,0,0,0,0,0,0
 2023-06-27 18:18:08.214,-187500.0224,-187500.0224,-187500.0224,-178020.8487,-187500.0224,-184603.7057,-187500.0224,-187500.0224,0.346,-0.064,0.912,192,0,0,0,0,0,0,0,0,0,0
 2023-06-27 18:18:08.214,-187500.0224,-187500.0224,-187500.0224,-177262.1858,-187500.0224,-183227.5535,-187500.0224,-187500.0224,0.346,-0.064,0.912,192,0,0,0,0,0,0,0,0,0,0
 2023-06-27 18:18:08.214,-187500.0224,-187500.0224,-187500.0224,-176986.1417,-187500.0224,-182734.541,-187500.0224,-187500.0224,0.346,-0.064,0.912,192,0,0,0,0,0,0,0,0,0,0
 2023-06-27 18:18:08.214,-187500.0224,-187500.0224,-187500.0224,-177540.6215,-187500.0224,-183747.1421,-187500.0224,-187500.0224,0.344,-0.072,0.918,192,10,192,253,192,28,176,0,0,0,0
 2023-06-27 18:18:08.214,-187500.0224,-187500.0224,-187500.0224,-178166.895,-187500.0224,-184879.2133,-187500.0224,-187500.0224,0.344,-0.072,0.918,192,0,0,0,0,0,0,0,0,0,0
 2023-06-27 18:18:08.214,-187500.0224,-187500.0224,-187500.0224,-178022.1004,-187500.0224,-184609.4054,-187500.0224,-187500.0224,0.344,-0.072,0.918,192,0,0,0,0,0,0,0,0,0,0
 2023-06-27 18:18:08.214,-187500.0224,-187500.0224,-187500.0224,-177266.7902,-187500.0224,-183238.5952,-187500.0224,-187500.0224,0.344,-0.072,0.918,192,0,0,0,0,0,0,0,0,0,0
 2023-06-27 18:18:08.214,-187500.0224,-187500.0224,-187500.0224,-176986.7899,-187500.0224,-182736.3739,-187500.0224,-187500.0224,0.344,-0.072,0.918,192,0,0,0,0,0,0,0,0,0,0
 2023-06-27 18:18:08.214,-187500.0224,-187500.0224,-187500.0224,-177537.1346,-187500.0224,-183740.079,-187500.0224,-187500.0224,0.344,-0.072,0.918,192,0,0,0,0,0,0,0,0,0,0
 2023-06-27 18:18:08.214,-187500.0224,-187500.0224,-187500.0224,-178168.5043,-187500.0224,-184882.6107,-187500.0224,-187500.0224,0.344,-0.072,0.918,192,0,0,0,0,0,0,0,0,0,0
 2023-06-27 18:18:08.214,-187500.0224,-187500.0224,-187500.0224,-178036.3161,-187500.0224,-184633.7688,-187500.0224,-187500.0224,0.344,-0.072,0.918,192,0,0,0,0,0,0,0,0,0,0
 2023-06-27 18:18:08.214,-187500.0224,-187500.0224,-187500.0224,-177284.6046,-187500.0224,-183268.9042,-187500.0224,-187500.0224,0.344,-0.072,0.918,192,0,0,0,0,0,0,0,0,0,0
 2023-06-27 18:18:08.214,-187500.0224,-187500.0224,-187500.0224,-176994.926,-187500.0224,-182751.126,-187500.0224,-187500.0224,0.344,-0.072,0.918,192,0,0,0,0,0,0,0,0,0,0
 2023-06-27 18:18:08.214,-187500.0224,-187500.0224,-187500.0224,-177538.6545,-187500.0224,-183744.5717,-187500.0224,-187500.0224,0.346,-0.06,0.918,192,10,208,254,32,28,176,0,0,0,0
 2023-06-27 18:18:08.214,-187500.0224,-187500.0224,-187500.0224,-178178.3391,-187500.0224,-184901.185,-187500.0224,-187500.0224,0.346,-0.06,0.918,192,0,0,0,0,0,0,0,0,0,0
 2023-06-27 18:18:08.214,-187500.0224,-187500.0224,-187500.0224,-178055.5833,-187500.0224,-184669.5986,-187500.0224,-187500.0224,0.346,-0.06,0.918,192,0,0,0,0,0,0,0,0,0,0
 2023-06-27 18:18:08.214,-187500.0224,-187500.0224,-187500.0224,-177304.6988,-187500.0224,-183306.7457,-187500.0224,-187500.0224,0.346,-0.06,0.918,192,0,0,0,0,0,0,0,0,0,0
 2023-06-27 18:18:08.214,-187500.0224,-187500.0224,-187500.0224,-177005.7666,-187500.0224,-182771.9355,-187500.0224,-187500.0224,0.346,-0.06,0.918,192,0,0,0,0,0,0,0,0,0,0
 2023-06-27 18:18:08.214,-187500.0224,-187500.0224,-187500.0224,-177541.4038,-187500.0224,-183749.3996,-187500.0224,-187500.0224,0.346,-0.06,0.918,192,0,0,0,0,0,0,0,0,0,0
 2023-06-27 18:18:08.214,-187500.0224,-187500.0224,-187500.0224,-178183.8153,-187500.0224,-184913.8808,-187500.0224,-187500.0224,0.346,-0.06,0.918,192,0,0,0,0,0,0,0,0,0,0
 2023-06-27 18:18:08.214,-187500.0224,-187500.0224,-187500.0224,-178069.5308,-187500.0224,-184697.9183,-187500.0224,-187500.0224,0.346,-0.06,0.918,192,0,0,0,0,0,0,0,0,0,0
 2023-06-27 18:18:08.214,-187500.0224,-187500.0224,-187500.0224,-177323.206,-187500.0224,-183340.0274,-187500.0224,-187500.0224,0.346,-0.06,0.918,192,0,0,0,0,0,0,0,0,0,0
 2023-06-27 18:18:08.214,-187500.0224,-187500.0224,-187500.0224,-177014.5732,-187500.0224,-182788.2299,-187500.0224,-187500.0224,0.346,-0.06,0.918,192,0,0,0,0,0,0,0,0,0,0
 2023-06-27 18:18:08.214,-187500.0224,-187500.0224,-187500.0224,-177542.0743,-187500.0224,-183752.6406,-187500.0224,-187500.0224,0.344,-0.066,0.914,192,10,192,253,240,28,144,0,0,0,0
 2023-06-27 18:18:08.693,-187500.0224,-187500.0224,-187500.0224,-178190.029,-187500.0224,-184925.1908,-187500.0224,-187500.0224,0.344,-0.066,0.914,192,0,0,0,0,0,0,0,0,0,0
 2023-06-27 18:18:08.693,-187500.0224,-187500.0224,-187500.0224,-178080.7514,-187500.0224,-184718.9736,-187500.0224,-187500.0224,0.344,-0.066,0.914,192,0,0,0,0,0,0,0,0,0,0
 2023-06-27 18:18:08.693,-187500.0224,-187500.0224,-187500.0224,-177333.0855,-187500.0224,-183359.7417,-187500.0224,-187500.0224,0.344,-0.066,0.914,192,0,0,0,0,0,0,0,0,0,0
 2023-06-27 18:18:08.693,-187500.0224,-187500.0224,-187500.0224,-177018.0377,-187500.0224,-182795.1143,-187500.0224,-187500.0224,0.344,-0.066,0.914,192,0,0,0,0,0,0,0,0,0,0
 2023-06-27 18:18:08.693,-187500.0224,-187500.0224,-187500.0224,-177541.6496,-187500.0224,-183749.9137,-187500.0224,-187500.0224,0.344,-0.066,0.914,192,0,0,0,0,0,0,0,0,0,0
 2023-06-27 18:18:08.693,-187500.0224,-187500.0224,-187500.0224,-178193.7841,-187500.0224,-184931.1587,-187500.0224,-187500.0224,0.344,-0.066,0.914,192,0,0,0,0,0,0,0,0,0,0
 2023-06-27 18:18:08.693,-187500.0224,-187500.0224,-187500.0224,-178091.5249,-187500.0224,-184739.2913,-187500.0224,-187500.0224,0.344,-0.066,0.914,192,0,0,0,0,0,0,0,0,0,0
 2023-06-27 18:18:08.693,-187500.0224,-187500.0224,-187500.0224,-177345.759,-187500.0224,-183383.0098,-187500.0224,-187500.0224,0.344,-0.066,0.914,192,0,0,0,0,0,0,0,0,0,0
 2023-06-27 18:18:08.693,-187500.0224,-187500.0224,-187500.0224,-177019.2223,-187500.0224,-182799.1823,-187500.0224,-187500.0224,0.344,-0.066,0.914,192,0,0,0,0,0,0,0,0,0,0
 2023-06-27 18:18:08.693,-187500.0224,-187500.0224,-187500.0224,-177531.0996,-187500.0224,-183734.8486,-187500.0224,-187500.0224,0.338,-0.064,0.914,192,10,144,254,0,28,144,0,0,0,0
 2023-06-27 18:18:08.693,-187500.0224,-187500.0224,-187500.0224,-178190.5655,-187500.0224,-184928.0965,-187500.0224,-187500.0224,0.338,-0.064,0.914,192,0,0,0,0,0,0,0,0,0,0
 2023-06-27 18:18:08.693,-187500.0224,-187500.0224,-187500.0224,-178096.5093,-187500.0224,-184751.0707,-187500.0224,-187500.0224,0.338,-0.064,0.914,192,0,0,0,0,0,0,0,0,0,0
 2023-06-27 18:18:08.693,-187500.0224,-187500.0224,-187500.0224,-177350.0505,-187500.0224,-183394.7669,-187500.0224,-187500.0224,0.338,-0.064,0.914,192,0,0,0,0,0,0,0,0,0,0
 2023-06-27 18:18:08.693,-187500.0224,-187500.0224,-187500.0224,-177015.9143,-187500.0224,-182796.366,-187500.0224,-187500.0224,0.338,-0.064,0.914,192,0,0,0,0,0,0,0,0,0,0
 2023-06-27 18:18:08.693,-187500.0224,-187500.0224,-187500.0224,-177522.9859,-187500.0224,-183722.3093,-187500.0224,-187500.0224,0.338,-0.064,0.914,192,0,0,0,0,0,0,0,0,0,0
 2023-06-27 18:18:08.693,-187500.0224,-187500.0224,-187500.0224,-178186.2293,-187500.0224,-184922.978,-187500.0224,-187500.0224,0.338,-0.064,0.914,192,0,0,0,0,0,0,0,0,0,0
 2023-06-27 18:18:08.693,-187500.0224,-187500.0224,-187500.0224,-178102.8796,-187500.0224,-184762.8054,-187500.0224,-187500.0224,0.338,-0.064,0.914,192,0,0,0,0,0,0,0,0,0,0
 2023-06-27 18:18:08.693,-187500.0224,-187500.0224,-187500.0224,-177359.6394,-187500.0224,-183411.2401,-187500.0224,-187500.0224,0.338,-0.064,0.914,192,0,0,0,0,0,0,0,0,0,0
 2023-06-27 18:18:08.693,-187500.0224,-187500.0224,-187500.0224,-177021.0105,-187500.0224,-182802.0433,-187500.0224,-187500.0224,0.338,-0.064,0.914,192,0,0,0,0,0,0,0,0,0,0
 2023-06-27 18:18:08.693,-187500.0224,-187500.0224,-187500.0224,-177516.9286,-187500.0224,-183709.837,-187500.0224,-187500.0224,0.334,-0.068,0.918,192,10,112,253,224,28,176,0,0,0,0
 2023-06-27 18:18:08.693,-187500.0224,-187500.0224,-187500.0224,-178179.412,-187500.0224,-184913.6573,-187500.0224,-187500.0224,0.334,-0.068,0.918,192,0,0,0,0,0,0,0,0,0,0
 2023-06-27 18:18:08.693,-187500.0224,-187500.0224,-187500.0224,-178103.1925,-187500.0224,-184767.3875,-187500.0224,-187500.0224,0.334,-0.068,0.918,192,0,0,0,0,0,0,0,0,0,0
 2023-06-27 18:18:08.694,-187500.0224,-187500.0224,-187500.0224,-177363.3498,-187500.0224,-183421.1866,-187500.0224,-187500.0224,0.334,-0.068,0.918,192,0,0,0,0,0,0,0,0,0,0
 2023-06-27 18:18:08.694,-187500.0224,-187500.0224,-187500.0224,-177017.4565,-187500.0224,-182798.847,-187500.0224,-187500.0224,0.334,-0.068,0.918,192,0,0,0,0,0,0,0,0,0,0
 2023-06-27 18:18:08.694,-187500.0224,-187500.0224,-187500.0224,-177507.1833,-187500.0224,-183694.3026,-187500.0224,-187500.0224,0.334,-0.068,0.918,192,0,0,0,0,0,0,0,0,0,0
 2023-06-27 18:18:08.694,-187500.0224,-187500.0224,-187500.0224,-178175.3887,-187500.0224,-184907.4212,-187500.0224,-187500.0224,0.334,-0.068,0.918,192,0,0,0,0,0,0,0,0,0,0
 2023-06-27 18:18:08.694,-187500.0224,-187500.0224,-187500.0224,-178107.1264,-187500.0224,-184775.3224,-187500.0224,-187500.0224,0.334,-0.068,0.918,192,0,0,0,0,0,0,0,0,0,0
 2023-06-27 18:18:08.694,-187500.0224,-187500.0224,-187500.0224,-177370.9047,-187500.0224,-183434.173,-187500.0224,-187500.0224,0.334,-0.068,0.918,192,0,0,0,0,0,0,0,0,0,0
 2023-06-27 18:18:08.694,-187500.0224,-187500.0224,-187500.0224,-177017.7471,-187500.0224,-182799.0482,-187500.0224,-187500.0224,0.334,-0.068,0.918,192,0,0,0,0,0,0,0,0,0,0
 2023-06-27 18:18:08.694,-187500.0224,-187500.0224,-187500.0224,-177501.2153,-187500.0224,-183683.0373,-187500.0224,-187500.0224,0.34,-0.068,0.92,192,10,160,253,224,28,192,0,0,0,0
 2023-06-27 18:18:08.694,-187500.0224,-187500.0224,-187500.0224,-178172.3712,-187500.0224,-184900.7827,-187500.0224,-187500.0224,0.34,-0.068,0.92,192,0,0,0,0,0,0,0,0,0,0
 2023-06-27 18:18:08.694,-187500.0224,-187500.0224,-187500.0224,-178108.3781,-187500.0224,-184778.7198,-187500.0224,-187500.0224,0.34,-0.068,0.92,192,0,0,0,0,0,0,0,0,0,0
 2023-06-27 18:18:08.694,-187500.0224,-187500.0224,-187500.0224,-177373.4081,-187500.0224,-183442.3314,-187500.0224,-187500.0224,0.34,-0.068,0.92,192,0,0,0,0,0,0,0,0,0,0
 2023-06-27 18:18:08.694,-187500.0224,-187500.0224,-187500.0224,-177014.2155,-187500.0224,-182796.7683,-187500.0224,-187500.0224,0.34,-0.068,0.92,192,0,0,0,0,0,0,0,0,0,0
 2023-06-27 18:18:08.694,-187500.0224,-187500.0224,-187500.0224,-177490.643,-187500.0224,-183667.5475,-187500.0224,-187500.0224,0.34,-0.068,0.92,192,0,0,0,0,0,0,0,0,0,0
 2023-06-27 18:18:08.694,-187500.0224,-187500.0224,-187500.0224,-178164.9057,-187500.0224,-184891.4844,-187500.0224,-187500.0224,0.34,-0.068,0.92,192,0,0,0,0,0,0,0,0,0,0
 2023-06-27 18:18:08.694,-187500.0224,-187500.0224,-187500.0224,-178111.1274,-187500.0224,-184786.6547,-187500.0224,-187500.0224,0.34,-0.068,0.92,192,0,0,0,0,0,0,0,0,0,0
 2023-06-27 18:18:08.694,-187500.0224,-187500.0224,-187500.0224,-177383.9357,-187500.0224,-183461.755,-187500.0224,-187500.0224,0.34,-0.068,0.92,192,0,0,0,0,0,0,0,0,0,0
 2023-06-27 18:18:08.694,-187500.0224,-187500.0224,-187500.0224,-177018.6412,-187500.0224,-182804.1667,-187500.0224,-187500.0224,0.34,-0.068,0.92,192,0,0,0,0,0,0,0,0,0,0
 2023-06-27 18:18:08.694,-187500.0224,-187500.0224,-187500.0224,-177483.781,-187500.0224,-183655.2764,-187500.0224,-187500.0224,0.344,-0.068,0.922,192,10,192,253,224,28,208,0,0,0,0
 2023-06-27 18:18:08.694,-187500.0224,-187500.0224,-187500.0224,-178161.5753,-187500.0224,-184883.6836,-187500.0224,-187500.0224,0.344,-0.068,0.922,192,0,0,0,0,0,0,0,0,0,0
 2023-06-27 18:18:08.694,-187500.0224,-187500.0224,-187500.0224,-178114.8154,-187500.0224,-184791.9744,-187500.0224,-187500.0224,0.344,-0.068,0.922,192,0,0,0,0,0,0,0,0,0,0
 2023-06-27 18:18:08.694,-187500.0224,-187500.0224,-187500.0224,-177390.686,-187500.0224,-183473.2438,-187500.0224,-187500.0224,0.344,-0.068,0.922,192,0,0,0,0,0,0,0,0,0,0
 2023-06-27 18:18:08.694,-187500.0224,-187500.0224,-187500.0224,-177014.7967,-187500.0224,-182799.5399,-187500.0224,-187500.0224,0.344,-0.068,0.922,192,0,0,0,0,0,0,0,0,0,0
 2023-06-27 18:18:08.694,-187500.0224,-187500.0224,-187500.0224,-177472.5157,-187500.0224,-183635.8304,-187500.0224,-187500.0224,0.344,-0.068,0.922,192,0,0,0,0,0,0,0,0,0,0
 2023-06-27 18:18:08.694,-187500.0224,-187500.0224,-187500.0224,-178152.6793,-187500.0224,-184870.3173,-187500.0224,-187500.0224,0.344,-0.068,0.922,192,0,0,0,0,0,0,0,0,0,0
 2023-06-27 18:18:08.694,-187500.0224,-187500.0224,-187500.0224,-178116.8494,-187500.0224,-184796.4895,-187500.0224,-187500.0224,0.344,-0.068,0.922,192,0,0,0,0,0,0,0,0,0,0
 2023-06-27 18:18:08.694,-187500.0224,-187500.0224,-187500.0224,-177395.1116,-187500.0224,-183483.2798,-187500.0224,-187500.0224,0.344,-0.068,0.922,192,0,0,0,0,0,0,0,0,0,0
 2023-06-27 18:18:08.694,-187500.0224,-187500.0224,-187500.0224,-177011.3545,-187500.0224,-182796.0754,-187500.0224,-187500.0224,0.344,-0.068,0.922,192,0,0,0,0,0,0,0,0,0,0
 2023-06-27 18:18:08.694,-187500.0224,-187500.0224,-187500.0224,-177459.3952,-187500.0224,-183616.3173,-187500.0224,-187500.0224,0.346,-0.07,0.926,192,10,208,253,208,28,240,0,0,0,0
 2023-06-27 18:18:08.694,-187500.0224,-187500.0224,-187500.0224,-178143.5598,-187500.0224,-184856.6603,-187500.0224,-187500.0224,0.346,-0.07,0.926,192,0,0,0,0,0,0,0,0,0,0
 2023-06-27 18:18:08.694,-187500.0224,-187500.0224,-187500.0224,-178113.3849,-187500.0224,-184794.299,-187500.0224,-187500.0224,0.346,-0.07,0.926,192,0,0,0,0,0,0,0,0,0,0
 2023-06-27 18:18:08.694,-187500.0224,-187500.0224,-187500.0224,-177398.2185,-187500.0224,-183490.4323,-187500.0224,-187500.0224,0.346,-0.07,0.926,192,0,0,0,0,0,0,0,0,0,0
 2023-06-27 18:18:08.694,-187500.0224,-187500.0224,-187500.0224,-177014.9531,-187500.0224,-182799.9199,-187500.0224,-187500.0224,0.346,-0.07,0.926,192,0,0,0,0,0,0,0,0,0,0
 2023-06-27 18:18:08.694,-187500.0224,-187500.0224,-187500.0224,-177458.4788,-187500.0224,-183611.5117,-187500.0224,-187500.0224,0.346,-0.07,0.926,192,0,0,0,0,0,0,0,0,0,0
 2023-06-27 18:18:08.694,-187500.0224,-187500.0224,-187500.0224,-178142.3751,-187500.0224,-184852.9947,-187500.0224,-187500.0224,0.346,-0.07,0.926,192,0,0,0,0,0,0,0,0,0,0
 2023-06-27 18:18:08.694,-187500.0224,-187500.0224,-187500.0224,-178117.8329,-187500.0224,-184801.6527,-187500.0224,-187500.0224,0.346,-0.07,0.926,192,0,0,0,0,0,0,0,0,0,0
 2023-06-27 18:18:08.694,-187500.0224,-187500.0224,-187500.0224,-177400.409,-187500.0224,-183497.1155,-187500.0224,-187500.0224,0.346,-0.07,0.926,192,0,0,0,0,0,0,0,0,0,0
 2023-06-27 18:18:08.694,-187500.0224,-187500.0224,-187500.0224,-177006.7948,-187500.0224,-182788.8781,-187500.0224,-187500.0224,0.346,-0.07,0.926,192,0,0,0,0,0,0,0,0,0,0
 2023-06-27 18:18:08.694,-187500.0224,-187500.0224,-187500.0224,-177439.5022,-187500.0224,-183580.2193,-187500.0224,-187500.0224,0.344,-0.064,0.922,192,10,192,254,0,28,208,0,0,0,0
 2023-06-27 18:18:08.694,-187500.0224,-187500.0224,-187500.0224,-178130.3052,-187500.0224,-184832.811,-187500.0224,-187500.0224,0.344,-0.064,0.922,192,0,0,0,0,0,0,0,0,0,0
 2023-06-27 18:18:08.694,-187500.0224,-187500.0224,-187500.0224,-178116.9835,-187500.0224,-184800.021,-187500.0224,-187500.0224,0.344,-0.064,0.922,192,0,0,0,0,0,0,0,0,0,0
 2023-06-27 18:18:08.694,-187500.0224,-187500.0224,-187500.0224,-177404.5217,-187500.0224,-183503.5528,-187500.0224,-187500.0224,0.344,-0.064,0.922,192,0,0,0,0,0,0,0,0,0,0
 2023-06-27 18:18:08.694,-187500.0224,-187500.0224,-187500.0224,-177003.7102,-187500.0224,-182782.8655,-187500.0224,-187500.0224,0.344,-0.064,0.922,192,0,0,0,0,0,0,0,0,0,0
 2023-06-27 18:18:08.694,-187500.0224,-187500.0224,-187500.0224,-177429.0639,-187500.0224,-183559.9686,-187500.0224,-187500.0224,0.344,-0.064,0.922,192,0,0,0,0,0,0,0,0,0,0
 2023-06-27 18:18:08.694,-187500.0224,-187500.0224,-187500.0224,-178120.0904,-187500.0224,-184815.6002,-187500.0224,-187500.0224,0.344,-0.064,0.922,192,0,0,0,0,0,0,0,0,0,0
 2023-06-27 18:18:08.694,-187500.0224,-187500.0224,-187500.0224,-178113.2508,-187500.0224,-184796.1542,-187500.0224,-187500.0224,0.344,-0.064,0.922,192,0,0,0,0,0,0,0,0,0,0
 2023-06-27 18:18:08.694,-187500.0224,-187500.0224,-187500.0224,-177405.6616,-187500.0224,-183507.3079,-187500.0224,-187500.0224,0.344,-0.064,0.922,192,0,0,0,0,0,0,0,0,0,0
 2023-06-27 18:18:08.694,-187500.0224,-187500.0224,-187500.0224,-176997.407,-187500.0224,-182773.3213,-187500.0224,-187500.0224,0.344,-0.064,0.922,192,0,0,0,0,0,0,0,0,0,0
 2023-06-27 18:18:08.694,-187500.0224,-187500.0224,-187500.0224,-177415.5411,-187500.0224,-183536.3428,-187500.0224,-187500.0224,0.348,-0.066,0.924,192,10,224,253,240,28,224,0,0,0,0
 2023-06-27 18:18:08.694,-187500.0224,-187500.0224,-187500.0224,-178112.0662,-187500.0224,-184800.021,-187500.0224,-187500.0224,0.348,-0.066,0.924,192,0,0,0,0,0,0,0,0,0,0
 2023-06-27 18:18:08.694,-187500.0224,-187500.0224,-187500.0224,-178112.1779,-187500.0224,-184793.8743,-187500.0224,-187500.0224,0.348,-0.066,0.924,192,0,0,0,0,0,0,0,0,0,0
 2023-06-27 18:18:08.695,-187500.0224,-187500.0224,-187500.0224,-177406.3769,-187500.0224,-183510.0795,-187500.0224,-187500.0224,0.348,-0.066,0.924,192,0,0,0,0,0,0,0,0,0,0
 2023-06-27 18:18:08.695,-187500.0224,-187500.0224,-187500.0224,-176990.7462,-187500.0224,-182763.643,-187500.0224,-187500.0224,0.348,-0.066,0.924,192,0,0,0,0,0,0,0,0,0,0
 2023-06-27 18:18:08.695,-187500.0224,-187500.0224,-187500.0224,-177401.7948,-187500.0224,-183512.4711,-187500.0224,-187500.0224,0.348,-0.066,0.924,192,0,0,0,0,0,0,0,0,0,0
 2023-06-27 18:18:08.695,-187500.0224,-187500.0224,-187500.0224,-178103.6172,-187500.0224,-184784.1736,-187500.0224,-187500.0224,0.348,-0.066,0.924,192,0,0,0,0,0,0,0,0,0,0
 2023-06-27 18:18:08.695,-187500.0224,-187500.0224,-187500.0224,-178111.1274,-187500.0224,-184792.1979,-187500.0224,-187500.0224,0.348,-0.066,0.924,192,0,0,0,0,0,0,0,0,0,0
 2023-06-27 18:18:08.695,-187500.0224,-187500.0224,-187500.0224,-177409.3273,-187500.0224,-183515.6227,-187500.0224,-187500.0224,0.348,-0.066,0.924,192,0,0,0,0,0,0,0,0,0,0
 2023-06-27 18:18:08.695,-187500.0224,-187500.0224,-187500.0224,-176989.8745,-187500.0224,-182760.2455,-187500.0224,-187500.0224,0.348,-0.066,0.924,192,0,0,0,0,0,0,0,0,0,0
 2023-06-27 18:18:08.695,-187500.0224,-187500.0224,-187500.0224,-177391.3565,-187500.0224,-183493.8745,-187500.0224,-187500.0224,0.344,-0.07,0.924,192,10,192,253,208,28,224,0,0,0,0
 2023-06-27 18:18:08.695,-187500.0224,-187500.0224,-187500.0224,-178094.0954,-187500.0224,-184769.5556,-187500.0224,-187500.0224,0.344,-0.07,0.924,192,0,0,0,0,0,0,0,0,0,0
 2023-06-27 18:18:08.695,-187500.0224,-187500.0224,-187500.0224,-178112.9155,-187500.0224,-184795.7295,-187500.0224,-187500.0224,0.344,-0.07,0.924,192,0,0,0,0,0,0,0,0,0,0
 2023-06-27 18:18:08.695,-187500.0224,-187500.0224,-187500.0224,-177415.6082,-187500.0224,-183525.8822,-187500.0224,-187500.0224,0.344,-0.07,0.924,192,0,0,0,0,0,0,0,0,0,0
 2023-06-27 18:18:08.695,-187500.0224,-187500.0224,-187500.0224,-176985.6276,-187500.0224,-182753.2494,-187500.0224,-187500.0224,0.344,-0.07,0.924,192,0,0,0,0,0,0,0,0,0,0
 2023-06-27 18:18:08.695,-187500.0224,-187500.0224,-187500.0224,-177379.8007,-187500.0224,-183472.5509,-187500.0224,-187500.0224,0.344,-0.07,0.924,192,0,0,0,0,0,0,0,0,0,0
 2023-06-27 18:18:08.695,-187500.0224,-187500.0224,-187500.0224,-178087.6581,-187500.0224,-184756.8598,-187500.0224,-187500.0224,0.344,-0.07,0.924,192,0,0,0,0,0,0,0,0,0,0
 2023-06-27 18:18:08.695,-187500.0224,-187500.0224,-187500.0224,-178114.0778,-187500.0224,-184797.2718,-187500.0224,-187500.0224,0.344,-0.07,0.924,192,0,0,0,0,0,0,0,0,0,0
 2023-06-27 18:18:08.695,-187500.0224,-187500.0224,-187500.0224,-177418.7374,-187500.0224,-183531.8054,-187500.0224,-187500.0224,0.344,-0.07,0.924,192,0,0,0,0,0,0,0,0,0,0
 2023-06-27 18:18:08.695,-187500.0224,-187500.0224,-187500.0224,-176979.5256,-187500.0224,-182743.6382,-187500.0224,-187500.0224,0.344,-0.07,0.924,192,0,0,0,0,0,0,0,0,0,0
 2023-06-27 18:18:08.695,-187500.0224,-187500.0224,-187500.0224,-177365.4285,-187500.0224,-183448.6569,-187500.0224,-187500.0224,0.344,-0.06,0.922,192,10,192,254,32,28,208,0,0,0,0
 2023-06-27 18:18:08.695,-187500.0224,-187500.0224,-187500.0224,-178079.902,-187500.0224,-184743.4264,-187500.0224,-187500.0224,0.344,-0.06,0.922,192,0,0,0,0,0,0,0,0,0,0
 2023-06-27 18:18:08.695,-187500.0224,-187500.0224,-187500.0224,-178116.2683,-187500.0224,-184800.5798,-187500.0224,-187500.0224,0.344,-0.06,0.922,192,0,0,0,0,0,0,0,0,0,0
 2023-06-27 18:18:08.695,-187500.0224,-187500.0224,-187500.0224,-177427.0523,-187500.0224,-183543.0483,-187500.0224,-187500.0224,0.344,-0.06,0.922,192,0,0,0,0,0,0,0,0,0,0
 2023-06-27 18:18:08.695,-187500.0224,-187500.0224,-187500.0224,-176984.1524,-187500.0224,-182745.4934,-187500.0224,-187500.0224,0.344,-0.06,0.922,192,0,0,0,0,0,0,0,0,0,0
 2023-06-27 18:18:08.695,-187500.0224,-187500.0224,-187500.0224,-177360.4217,-187500.0224,-183435.3576,-187500.0224,-187500.0224,0.344,-0.06,0.922,192,0,0,0,0,0,0,0,0,0,0
 2023-06-27 18:18:08.695,-187500.0224,-187500.0224,-187500.0224,-178071.1178,-187500.0224,-184729.7248,-187500.0224,-187500.0224,0.344,-0.06,0.922,192,0,0,0,0,0,0,0,0,0,0
 2023-06-27 18:18:08.695,-187500.0224,-187500.0224,-187500.0224,-178112.9602,-187500.0224,-184799.3952,-187500.0224,-187500.0224,0.344,-0.06,0.922,192,0,0,0,0,0,0,0,0,0,0
 2023-06-27 18:18:08.695,-187500.0224,-187500.0224,-187500.0224,-177430.9415,-187500.0224,-183551.8996,-187500.0224,-187500.0224,0.344,-0.06,0.922,192,0,0,0,0,0,0,0,0,0,0
 2023-06-27 18:18:08.695,-187500.0224,-187500.0224,-187500.0224,-176981.7831,-187500.0224,-182741.4924,-187500.0224,-187500.0224,0.344,-0.06,0.922,192,0,0,0,0,0,0,0,0,0,0
 2023-06-27 18:18:08.695,-187500.0224,-187500.0224,-187500.0224,-177350.2517,-187500.0224,-183417.8786,-187500.0224,-187500.0224,0.344,-0.066,0.922,192,10,192,253,240,28,208,0,0,0,0
 2023-06-27 18:18:08.695,-187500.0224,-187500.0224,-187500.0224,-178070.0896,-187500.0224,-184725.2768,-187500.0224,-187500.0224,0.344,-0.066,0.922,192,0,0,0,0,0,0,0,0,0,0
 2023-06-27 18:18:08.695,-187500.0224,-187500.0224,-187500.0224,-178124.6725,-187500.0224,-184814.6614,-187500.0224,-187500.0224,0.344,-0.066,0.922,192,0,0,0,0,0,0,0,0,0,0
 2023-06-27 18:18:08.695,-187500.0224,-187500.0224,-187500.0224,-177439.681,-187500.0224,-183565.9589,-187500.0224,-187500.0224,0.344,-0.066,0.922,192,0,0,0,0,0,0,0,0,0,0
 2023-06-27 18:18:08.695,-187500.0224,-187500.0224,-187500.0224,-176981.7608,-187500.0224,-182741.5818,-187500.0224,-187500.0224,0.344,-0.066,0.922,192,0,0,0,0,0,0,0,0,0,0
 2023-06-27 18:18:08.695,-187500.0224,-187500.0224,-187500.0224,-177346.5636,-187500.0224,-183411.2624,-187500.0224,-187500.0224,0.344,-0.066,0.922,192,0,0,0,0,0,0,0,0,0,0
 2023-06-27 18:18:08.695,-187500.0224,-187500.0224,-187500.0224,-178067.8321,-187500.0224,-184723.0193,-187500.0224,-187500.0224,0.344,-0.066,0.922,192,0,0,0,0,0,0,0,0,0,0
 2023-06-27 18:18:08.695,-187500.0224,-187500.0224,-187500.0224,-178130.037,-187500.0224,-184825.5914,-187500.0224,-187500.0224,0.344,-0.066,0.922,192,0,0,0,0,0,0,0,0,0,0
 2023-06-27 18:18:08.695,-187500.0224,-187500.0224,-187500.0224,-177450.3875,-187500.0224,-183584.8237,-187500.0224,-187500.0224,0.344,-0.066,0.922,192,0,0,0,0,0,0,0,0,0,0
 2023-06-27 18:18:08.695,-187500.0224,-187500.0224,-187500.0224,-176982.0514,-187500.0224,-182742.4088,-187500.0224,-187500.0224,0.344,-0.066,0.922,192,0,0,0,0,0,0,0,0,0,0
 2023-06-27 18:18:08.695,-187500.0224,-187500.0224,-187500.0224,-177340.1487,-187500.0224,-183396.7562,-187500.0224,-187500.0224,0.346,-0.068,0.92,192,10,208,253,224,28,192,0,0,0,0
 2023-06-27 18:18:08.695,-187500.0224,-187500.0224,-187500.0224,-178066.3345,-187500.0224,-184717.856,-187500.0224,-187500.0224,0.346,-0.068,0.92,192,0,0,0,0,0,0,0,0,0,0
 2023-06-27 18:18:08.695,-187500.0224,-187500.0224,-187500.0224,-178130.7075,-187500.0224,-184830.6876,-187500.0224,-187500.0224,0.346,-0.068,0.92,192,0,0,0,0,0,0,0,0,0,0
 2023-06-27 18:18:08.695,-187500.0224,-187500.0224,-187500.0224,-177453.8967,-187500.0224,-183594.5915,-187500.0224,-187500.0224,0.346,-0.068,0.92,192,0,0,0,0,0,0,0,0,0,0
 2023-06-27 18:18:08.695,-187500.0224,-187500.0224,-187500.0224,-176981.6714,-187500.0224,-182742.0959,-187500.0224,-187500.0224,0.346,-0.068,0.92,192,0,0,0,0,0,0,0,0,0,0
 2023-06-27 18:18:08.695,-187500.0224,-187500.0224,-187500.0224,-177332.7949,-187500.0224,-183384.6862,-187500.0224,-187500.0224,0.346,-0.068,0.92,192,0,0,0,0,0,0,0,0,0,0
 2023-06-27 18:18:08.695,-187500.0224,-187500.0224,-187500.0224,-178064.3899,-187500.0224,-184715.442,-187500.0224,-187500.0224,0.346,-0.068,0.92,192,0,0,0,0,0,0,0,0,0,0
 2023-06-27 18:18:08.695,-187500.0224,-187500.0224,-187500.0224,-178137.5919,-187500.0224,-184843.2493,-187500.0224,-187500.0224,0.346,-0.068,0.92,192,0,0,0,0,0,0,0,0,0,0
 2023-06-27 18:18:08.695,-187500.0224,-187500.0224,-187500.0224,-177464.2903,-187500.0224,-183611.9588,-187500.0224,-187500.0224,0.346,-0.068,0.92,192,0,0,0,0,0,0,0,0,0,0
 2023-06-27 18:18:08.695,-187500.0224,-187500.0224,-187500.0224,-176984.6442,-187500.0224,-182745.8957,-187500.0224,-187500.0224,0.346,-0.068,0.92,192,0,0,0,0,0,0,0,0,0,0
 2023-06-27 18:18:08.695,-187500.0224,-187500.0224,-187500.0224,-177329.6657,-187500.0224,-183378.1595,-187500.0224,-187500.0224,0.344,-0.066,0.92,192,10,192,253,240,28,192,0,0,0,0
 2023-06-27 18:18:09.174,-187500.0224,-187500.0224,-187500.0224,-178063.7417,-187500.0224,-184714.9503,-187500.0224,-187500.0224,0.344,-0.066,0.92,192,0,0,0,0,0,0,0,0,0,0
 2023-06-27 18:18:09.174,-187500.0224,-187500.0224,-187500.0224,-178144.1856,-187500.0224,-184856.1239,-187500.0224,-187500.0224,0.344,-0.066,0.92,192,0,0,0,0,0,0,0,0,0,0
 2023-06-27 18:18:09.174,-187500.0224,-187500.0224,-187500.0224,-177471.644,-187500.0224,-183627.3368,-187500.0224,-187500.0224,0.344,-0.066,0.92,192,0,0,0,0,0,0,0,0,0,0
 2023-06-27 18:18:09.174,-187500.0224,-187500.0224,-187500.0224,-176984.3312,-187500.0224,-182746.1863,-187500.0224,-187500.0224,0.344,-0.066,0.92,192,0,0,0,0,0,0,0,0,0,0
 2023-06-27 18:18:09.174,-187500.0224,-187500.0224,-187500.0224,-177321.4626,-187500.0224,-183363.4521,-187500.0224,-187500.0224,0.344,-0.066,0.92,192,0,0,0,0,0,0,0,0,0,0
 2023-06-27 18:18:09.174,-187500.0224,-187500.0224,-187500.0224,-178059.7184,-187500.0224,-184707.4178,-187500.0224,-187500.0224,0.344,-0.066,0.92,192,0,0,0,0,0,0,0,0,0,0
 2023-06-27 18:18:09.174,-187500.0224,-187500.0224,-187500.0224,-178149.5053,-187500.0224,-184864.5058,-187500.0224,-187500.0224,0.344,-0.066,0.92,192,0,0,0,0,0,0,0,0,0,0
 2023-06-27 18:18:09.174,-187500.0224,-187500.0224,-187500.0224,-177483.6022,-187500.0224,-183645.3076,-187500.0224,-187500.0224,0.344,-0.066,0.92,192,0,0,0,0,0,0,0,0,0,0
 2023-06-27 18:18:09.174,-187500.0224,-187500.0224,-187500.0224,-176989.0475,-187500.0224,-182752.0871,-187500.0224,-187500.0224,0.344,-0.066,0.92,192,0,0,0,0,0,0,0,0,0,0
 2023-06-27 18:18:09.174,-187500.0224,-187500.0224,-187500.0224,-177315.07,-187500.0224,-183352.6115,-187500.0224,-187500.0224,0.34,-0.064,0.924,192,10,160,254,0,28,224,0,0,0,0
 2023-06-27 18:18:09.175,-187500.0224,-187500.0224,-187500.0224,-178054.421,-187500.0224,-184700.824,-187500.0224,-187500.0224,0.34,-0.064,0.924,192,0,0,0,0,0,0,0,0,0,0
 2023-06-27 18:18:09.175,-187500.0224,-187500.0224,-187500.0224,-178153.0593,-187500.0224,-184873.603,-187500.0224,-187500.0224,0.34,-0.064,0.924,192,0,0,0,0,0,0,0,0,0,0
 2023-06-27 18:18:09.175,-187500.0224,-187500.0224,-187500.0224,-177492.5652,-187500.0224,-183663.0548,-187500.0224,-187500.0224,0.34,-0.064,0.924,192,0,0,0,0,0,0,0,0,0,0
 2023-06-27 18:18:09.175,-187500.0224,-187500.0224,-187500.0224,-176988.891,-187500.0224,-182754.0317,-187500.0224,-187500.0224,0.34,-0.064,0.924,192,0,0,0,0,0,0,0,0,0,0
 2023-06-27 18:18:09.175,-187500.0224,-187500.0224,-187500.0224,-177309.1692,-187500.0224,-183342.1508,-187500.0224,-187500.0224,0.34,-0.064,0.924,192,0,0,0,0,0,0,0,0,0,0
 2023-06-27 18:18:09.175,-187500.0224,-187500.0224,-187500.0224,-178052.007,-187500.0224,-184696.2642,-187500.0224,-187500.0224,0.34,-0.064,0.924,192,0,0,0,0,0,0,0,0,0,0
 2023-06-27 18:18:09.175,-187500.0224,-187500.0224,-187500.0224,-178158.2002,-187500.0224,-184882.9236,-187500.0224,-187500.0224,0.34,-0.064,0.924,192,0,0,0,0,0,0,0,0,0,0
 2023-06-27 18:18:09.175,-187500.0224,-187500.0224,-187500.0224,-177498.3096,-187500.0224,-183675.3483,-187500.0224,-187500.0224,0.34,-0.064,0.924,192,0,0,0,0,0,0,0,0,0,0
 2023-06-27 18:18:09.175,-187500.0224,-187500.0224,-187500.0224,-176988.6451,-187500.0224,-182753.6965,-187500.0224,-187500.0224,0.34,-0.064,0.924,192,0,0,0,0,0,0,0,0,0,0
 2023-06-27 18:18:09.175,-187500.0224,-187500.0224,-187500.0224,-177302.5977,-187500.0224,-183330.4162,-187500.0224,-187500.0224,0.34,-0.062,0.924,192,10,160,254,16,28,224,0,0,0,0
 2023-06-27 18:18:09.175,-187500.0224,-187500.0224,-187500.0224,-178049.5483,-187500.0224,-184692.2856,-187500.0224,-187500.0224,0.34,-0.062,0.924,192,0,0,0,0,0,0,0,0,0,0
 2023-06-27 18:18:09.175,-187500.0224,-187500.0224,-187500.0224,-178163.3187,-187500.0224,-184892.9819,-187500.0224,-187500.0224,0.34,-0.062,0.924,192,0,0,0,0,0,0,0,0,0,0
 2023-06-27 18:18:09.175,-187500.0224,-187500.0224,-187500.0224,-177505.5739,-187500.0224,-183690.3687,-187500.0224,-187500.0224,0.34,-0.062,0.924,192,0,0,0,0,0,0,0,0,0,0
 2023-06-27 18:18:09.175,-187500.0224,-187500.0224,-187500.0224,-176987.7511,-187500.0224,-182754.2106,-187500.0224,-187500.0224,0.34,-0.062,0.924,192,0,0,0,0,0,0,0,0,0,0
 2023-06-27 18:18:09.175,-187500.0224,-187500.0224,-187500.0224,-177295.1099,-187500.0224,-183318.5474,-187500.0224,-187500.0224,0.34,-0.062,0.924,192,0,0,0,0,0,0,0,0,0,0
 2023-06-27 18:18:09.175,-187500.0224,-187500.0224,-187500.0224,-178045.8826,-187500.0224,-184687.5023,-187500.0224,-187500.0224,0.34,-0.062,0.924,192,0,0,0,0,0,0,0,0,0,0
 2023-06-27 18:18:09.175,-187500.0224,-187500.0224,-187500.0224,-178170.3148,-187500.0224,-184905.7448,-187500.0224,-187500.0224,0.34,-0.062,0.924,192,0,0,0,0,0,0,0,0,0,0
 2023-06-27 18:18:09.175,-187500.0224,-187500.0224,-187500.0224,-177518.4038,-187500.0224,-183712.0946,-187500.0224,-187500.0224,0.34,-0.062,0.924,192,0,0,0,0,0,0,0,0,0,0
 2023-06-27 18:18:09.175,-187500.0224,-187500.0224,-187500.0224,-176994.4566,-187500.0224,-182764.2688,-187500.0224,-187500.0224,0.34,-0.062,0.924,192,0,0,0,0,0,0,0,0,0,0
 2023-06-27 18:18:09.175,-187500.0224,-187500.0224,-187500.0224,-177293.1653,-187500.0224,-183313.0265,-187500.0224,-187500.0224,0.344,-0.064,0.926,192,10,192,254,0,28,240,0,0,0,0
 2023-06-27 18:18:09.175,-187500.0224,-187500.0224,-187500.0224,-178044.4745,-187500.0224,-184684.4625,-187500.0224,-187500.0224,0.344,-0.064,0.926,192,0,0,0,0,0,0,0,0,0,0
 2023-06-27 18:18:09.175,-187500.0224,-187500.0224,-187500.0224,-178176.4839,-187500.0224,-184917.4794,-187500.0224,-187500.0224,0.344,-0.064,0.926,192,0,0,0,0,0,0,0,0,0,0
 2023-06-27 18:18:09.175,-187500.0224,-187500.0224,-187500.0224,-177531.6584,-187500.0224,-183735.3851,-187500.0224,-187500.0224,0.344,-0.064,0.926,192,0,0,0,0,0,0,0,0,0,0
 2023-06-27 18:18:09.175,-187500.0224,-187500.0224,-187500.0224,-176999.5081,-187500.0224,-182772.8966,-187500.0224,-187500.0224,0.344,-0.064,0.926,192,0,0,0,0,0,0,0,0,0,0
 2023-06-27 18:18:09.175,-187500.0224,-187500.0224,-187500.0224,-177291.9136,-187500.0224,-183311.1043,-187500.0224,-187500.0224,0.344,-0.064,0.926,192,0,0,0,0,0,0,0,0,0,0
 2023-06-27 18:18:09.175,-187500.0224,-187500.0224,-187500.0224,-178046.4414,-187500.0224,-184687.4576,-187500.0224,-187500.0224,0.344,-0.064,0.926,192,0,0,0,0,0,0,0,0,0,0
 2023-06-27 18:18:09.175,-187500.0224,-187500.0224,-187500.0224,-178184.9552,-187500.0224,-184930.9352,-187500.0224,-187500.0224,0.344,-0.064,0.926,192,0,0,0,0,0,0,0,0,0,0
 2023-06-27 18:18:09.175,-187500.0224,-187500.0224,-187500.0224,-177541.1803,-187500.0224,-183753.11,-187500.0224,-187500.0224,0.344,-0.064,0.926,192,0,0,0,0,0,0,0,0,0,0
 2023-06-27 18:18:09.175,-187500.0224,-187500.0224,-187500.0224,-177001.408,-187500.0224,-182777.5681,-187500.0224,-187500.0224,0.344,-0.064,0.926,192,0,0,0,0,0,0,0,0,0,0
 2023-06-27 18:18:09.175,-187500.0224,-187500.0224,-187500.0224,-177287.2644,-187500.0224,-183301.9401,-187500.0224,-187500.0224,0.342,-0.07,0.928,192,10,176,253,208,29,0,0,0,0,0
 2023-06-27 18:18:09.175,-187500.0224,-187500.0224,-187500.0224,-178042.3958,-187500.0224,-184680.4392,-187500.0224,-187500.0224,0.342,-0.07,0.928,192,0,0,0,0,0,0,0,0,0,0
 2023-06-27 18:18:09.175,-187500.0224,-187500.0224,-187500.0224,-178190.1408,-187500.0224,-184940.8594,-187500.0224,-187500.0224,0.342,-0.07,0.928,192,0,0,0,0,0,0,0,0,0,0
 2023-06-27 18:18:09.175,-187500.0224,-187500.0224,-187500.0224,-177552.0656,-187500.0224,-183772.2208,-187500.0224,-187500.0224,0.342,-0.07,0.928,192,0,0,0,0,0,0,0,0,0,0
 2023-06-27 18:18:09.175,-187500.0224,-187500.0224,-187500.0224,-177003.822,-187500.0224,-182782.2844,-187500.0224,-187500.0224,0.342,-0.07,0.928,192,0,0,0,0,0,0,0,0,0,0
 2023-06-27 18:18:09.175,-187500.0224,-187500.0224,-187500.0224,-177279.3519,-187500.0224,-183288.8196,-187500.0224,-187500.0224,0.342,-0.07,0.928,192,0,0,0,0,0,0,0,0,0,0
 2023-06-27 18:18:09.175,-187500.0224,-187500.0224,-187500.0224,-178036.182,-187500.0224,-184670.7162,-187500.0224,-187500.0224,0.342,-0.07,0.928,192,0,0,0,0,0,0,0,0,0,0
 2023-06-27 18:18:09.175,-187500.0224,-187500.0224,-187500.0224,-178189.8726,-187500.0224,-184943.4075,-187500.0224,-187500.0224,0.342,-0.07,0.928,192,0,0,0,0,0,0,0,0,0,0
 2023-06-27 18:18:09.175,-187500.0224,-187500.0224,-187500.0224,-177556.5359,-187500.0224,-183782.5696,-187500.0224,-187500.0224,0.342,-0.07,0.928,192,0,0,0,0,0,0,0,0,0,0
 2023-06-27 18:18:09.175,-187500.0224,-187500.0224,-187500.0224,-177002.3915,-187500.0224,-182780.0492,-187500.0224,-187500.0224,0.342,-0.07,0.928,192,0,0,0,0,0,0,0,0,0,0
 2023-06-27 18:18:09.175,-187500.0224,-187500.0224,-187500.0224,-177271.1265,-187500.0224,-183273.2628,-187500.0224,-187500.0224,0.342,-0.07,0.928,192,0,0,0,0,0,0,0,0,0,0
 2023-06-27 18:18:09.175,-187500.0224,-187500.0224,-187500.0224,-178030.9964,-187500.0224,-184660.8814,-187500.0224,-187500.0224,0.342,-0.07,0.926,192,10,176,253,208,28,240,0,0,0,0
 2023-06-27 18:18:09.176,-187500.0224,-187500.0224,-187500.0224,-178192.4207,-187500.0224,-184948.7719,-187500.0224,-187500.0224,0.342,-0.07,0.926,192,0,0,0,0,0,0,0,0,0,0
 2023-06-27 18:18:09.176,-187500.0224,-187500.0224,-187500.0224,-177564.9625,-187500.0224,-183797.5229,-187500.0224,-187500.0224,0.342,-0.07,0.926,192,0,0,0,0,0,0,0,0,0,0
 2023-06-27 18:18:09.176,-187500.0224,-187500.0224,-187500.0224,-177004.0678,-187500.0224,-182782.7761,-187500.0224,-187500.0224,0.342,-0.07,0.926,192,0,0,0,0,0,0,0,0,0,0
 2023-06-27 18:18:09.176,-187500.0224,-187500.0224,-187500.0224,-177267.0138,-187500.0224,-183265.6185,-187500.0224,-187500.0224,0.342,-0.07,0.926,192,0,0,0,0,0,0,0,0,0,0
 2023-06-27 18:18:09.176,-187500.0224,-187500.0224,-187500.0224,-178028.6942,-187500.0224,-184656.5452,-187500.0224,-187500.0224,0.342,-0.07,0.926,192,0,0,0,0,0,0,0,0,0,0
 2023-06-27 18:18:09.176,-187500.0224,-187500.0224,-187500.0224,-178198.031,-187500.0224,-184957.1314,-187500.0224,-187500.0224,0.342,-0.07,0.926,192,0,0,0,0,0,0,0,0,0,0
 2023-06-27 18:18:09.176,-187500.0224,-187500.0224,-187500.0224,-177576.429,-187500.0224,-183816.3431,-187500.0224,-187500.0224,0.342,-0.07,0.926,192,0,0,0,0,0,0,0,0,0,0
 2023-06-27 18:18:09.176,-187500.0224,-187500.0224,-187500.0224,-177007.3759,-187500.0224,-182787.4476,-187500.0224,-187500.0224,0.342,-0.07,0.926,192,0,0,0,0,0,0,0,0,0,0
 2023-06-27 18:18:09.176,-187500.0224,-187500.0224,-187500.0224,-177255.9496,-187500.0224,-183247.1112,-187500.0224,-187500.0224,0.342,-0.07,0.926,192,0,0,0,0,0,0,0,0,0,0
 2023-06-27 18:18:09.176,-187500.0224,-187500.0224,-187500.0224,-178019.3958,-187500.0224,-184641.2119,-187500.0224,-187500.0224,0.354,-0.068,0.926,192,11,16,253,224,28,240,0,0,0,0
 2023-06-27 18:18:09.176,-187500.0224,-187500.0224,-187500.0224,-178201.9872,-187500.0224,-184963.1664,-187500.0224,-187500.0224,0.354,-0.068,0.926,192,0,0,0,0,0,0,0,0,0,0
 2023-06-27 18:18:09.176,-187500.0224,-187500.0224,-187500.0224,-177586.4202,-187500.0224,-183833.2187,-187500.0224,-187500.0224,0.354,-0.068,0.926,192,0,0,0,0,0,0,0,0,0,0
 2023-06-27 18:18:09.176,-187500.0224,-187500.0224,-187500.0224,-177010.4381,-187500.0224,-182792.3426,-187500.0224,-187500.0224,0.354,-0.068,0.926,192,0,0,0,0,0,0,0,0,0,0
 2023-06-27 18:18:09.176,-187500.0224,-187500.0224,-187500.0224,-177252.1499,-187500.0224,-183238.0811,-187500.0224,-187500.0224,0.354,-0.068,0.926,192,0,0,0,0,0,0,0,0,0,0
 2023-06-27 18:18:09.176,-187500.0224,-187500.0224,-187500.0224,-178016.6019,-187500.0224,-184634.5958,-187500.0224,-187500.0224,0.354,-0.068,0.926,192,0,0,0,0,0,0,0,0,0,0
 2023-06-27 18:18:09.176,-187500.0224,-187500.0224,-187500.0224,-178204.2001,-187500.0224,-184967.6591,-187500.0224,-187500.0224,0.354,-0.068,0.926,192,0,0,0,0,0,0,0,0,0,0
 2023-06-27 18:18:09.176,-187500.0224,-187500.0224,-187500.0224,-177593.5057,-187500.0224,-183846.8309,-187500.0224,-187500.0224,0.354,-0.068,0.926,192,0,0,0,0,0,0,0,0,0,0
 2023-06-27 18:18:09.176,-187500.0224,-187500.0224,-187500.0224,-177010.2369,-187500.0224,-182792.9238,-187500.0224,-187500.0224,0.354,-0.068,0.926,192,0,0,0,0,0,0,0,0,0,0
 2023-06-27 18:18:09.176,-187500.0224,-187500.0224,-187500.0224,-177243.3656,-187500.0224,-183223.3066,-187500.0224,-187500.0224,0.354,-0.068,0.926,192,0,0,0,0,0,0,0,0,0,0
 2023-06-27 18:18:09.176,-187500.0224,-187500.0224,-187500.0224,-178009.1811,-187500.0224,-184622.3023,-187500.0224,-187500.0224,0.348,-0.07,0.924,192,10,224,253,208,28,224,0,0,0,0
 2023-06-27 18:18:09.176,-187500.0224,-187500.0224,-187500.0224,-178203.4401,-187500.0224,-184968.5532,-187500.0224,-187500.0224,0.348,-0.07,0.924,192,0,0,0,0,0,0,0,0,0,0
 2023-06-27 18:18:09.176,-187500.0224,-187500.0224,-187500.0224,-177598.7807,-187500.0224,-183857.4927,-187500.0224,-187500.0224,0.348,-0.07,0.924,192,0,0,0,0,0,0,0,0,0,0
 2023-06-27 18:18:09.176,-187500.0224,-187500.0224,-187500.0224,-177011.0416,-187500.0224,-182793.2591,-187500.0224,-187500.0224,0.348,-0.07,0.924,192,0,0,0,0,0,0,0,0,0,0
 2023-06-27 18:18:09.176,-187500.0224,-187500.0224,-187500.0224,-177238.4035,-187500.0224,-183211.5273,-187500.0224,-187500.0224,0.348,-0.07,0.924,192,0,0,0,0,0,0,0,0,0,0
 2023-06-27 18:18:09.176,-187500.0224,-187500.0224,-187500.0224,-178004.7331,-187500.0224,-184612.3558,-187500.0224,-187500.0224,0.348,-0.07,0.924,192,0,0,0,0,0,0,0,0,0,0
 2023-06-27 18:18:09.176,-187500.0224,-187500.0224,-187500.0224,-178208.1563,-187500.0224,-184973.6941,-187500.0224,-187500.0224,0.348,-0.07,0.924,192,0,0,0,0,0,0,0,0,0,0
 2023-06-27 18:18:09.176,-187500.0224,-187500.0224,-187500.0224,-177607.8779,-187500.0224,-183872.3566,-187500.0224,-187500.0224,0.348,-0.07,0.924,192,0,0,0,0,0,0,0,0,0,0
 2023-06-27 18:18:09.176,-187500.0224,-187500.0224,-187500.0224,-177012.9415,-187500.0224,-182795.9413,-187500.0224,-187500.0224,0.348,-0.07,0.924,192,0,0,0,0,0,0,0,0,0,0
 2023-06-27 18:18:09.176,-187500.0224,-187500.0224,-187500.0224,-177231.7204,-187500.0224,-183198.1609,-187500.0224,-187500.0224,0.348,-0.07,0.924,192,0,0,0,0,0,0,0,0,0,0
 2023-06-27 18:18:09.176,-187500.0224,-187500.0224,-187500.0224,-177999.0557,-187500.0224,-184601.0234,-187500.0224,-187500.0224,0.342,-0.07,0.928,192,10,176,253,208,29,0,0,0,0,0
 2023-06-27 18:18:09.176,-187500.0224,-187500.0224,-187500.0224,-178211.3303,-187500.0224,-184978.6338,-187500.0224,-187500.0224,0.342,-0.07,0.928,192,0,0,0,0,0,0,0,0,0,0
 2023-06-27 18:18:09.176,-187500.0224,-187500.0224,-187500.0224,-177618.6291,-187500.0224,-183888.6063,-187500.0224,-187500.0224,0.342,-0.07,0.928,192,0,0,0,0,0,0,0,0,0,0
 2023-06-27 18:18:09.176,-187500.0224,-187500.0224,-187500.0224,-177015.579,-187500.0224,-182798.2882,-187500.0224,-187500.0224,0.342,-0.07,0.928,192,0,0,0,0,0,0,0,0,0,0
 2023-06-27 18:18:09.176,-187500.0224,-187500.0224,-187500.0224,-177221.9303,-187500.0224,-183181.3524,-187500.0224,-187500.0224,0.342,-0.07,0.928,192,0,0,0,0,0,0,0,0,0,0
 2023-06-27 18:18:09.176,-187500.0224,-187500.0224,-187500.0224,-177989.1092,-187500.0224,-184585.1314,-187500.0224,-187500.0224,0.342,-0.07,0.928,192,0,0,0,0,0,0,0,0,0,0
 2023-06-27 18:18:09.176,-187500.0224,-187500.0224,-187500.0224,-178209.2515,-187500.0224,-184976.6445,-187500.0224,-187500.0224,0.342,-0.07,0.928,192,0,0,0,0,0,0,0,0,0,0
 2023-06-27 18:18:09.176,-187500.0224,-187500.0224,-187500.0224,-177616.5503,-187500.0224,-183888.1593,-187500.0224,-187500.0224,0.342,-0.07,0.928,192,0,0,0,0,0,0,0,0,0,0
 2023-06-27 18:18:09.177,-187500.0224,-187500.0224,-187500.0224,-177009.2087,-187500.0224,-182787.3358,-187500.0224,-187500.0224,0.342,-0.07,0.928,192,0,0,0,0,0,0,0,0,0,0
 2023-06-27 18:18:09.177,-187500.0224,-187500.0224,-187500.0224,-177206.597,-187500.0224,-183155.022,-187500.0224,-187500.0224,0.342,-0.07,0.928,192,0,0,0,0,0,0,0,0,0,0
 2023-06-27 18:18:09.177,-187500.0224,-187500.0224,-187500.0224,-177975.0276,-187500.0224,-184558.8904,-187500.0224,-187500.0224,0.342,-0.068,0.926,192,10,176,253,224,28,240,0,0,0,0
 2023-06-27 18:18:09.177,-187500.0224,-187500.0224,-187500.0224,-178197.6733,-187500.0224,-184955.3209,-187500.0224,-187500.0224,0.342,-0.068,0.926,192,0,0,0,0,0,0,0,0,0,0
 2023-06-27 18:18:09.177,-187500.0224,-187500.0224,-187500.0224,-177607.3861,-187500.0224,-183869.7414,-187500.0224,-187500.0224,0.342,-0.068,0.926,192,0,0,0,0,0,0,0,0,0,0
 2023-06-27 18:18:09.177,-187500.0224,-187500.0224,-187500.0224,-176988.2875,-187500.0224,-182748.8014,-187500.0224,-187500.0224,0.342,-0.068,0.926,192,0,0,0,0,0,0,0,0,0,0
 2023-06-27 18:18:09.177,-187500.0224,-187500.0224,-187500.0224,-177183.2394,-187500.0224,-183110.4974,-187500.0224,-187500.0224,0.342,-0.068,0.926,192,0,0,0,0,0,0,0,0,0,0
 2023-06-27 18:18:09.177,-187500.0224,-187500.0224,-187500.0224,-177957.258,-187500.0224,-184528.5591,-187500.0224,-187500.0224,0.342,-0.068,0.926,192,0,0,0,0,0,0,0,0,0,0
 2023-06-27 18:18:09.177,-187500.0224,-187500.0224,-187500.0224,-178192.0407,-187500.0224,-184946.6485,-187500.0224,-187500.0224,0.342,-0.068,0.926,192,0,0,0,0,0,0,0,0,0,0
 2023-06-27 18:18:09.177,-187500.0224,-187500.0224,-187500.0224,-177608.1908,-187500.0224,-183871.7531,-187500.0224,-187500.0224,0.342,-0.068,0.926,192,0,0,0,0,0,0,0,0,0,0
 2023-06-27 18:18:09.177,-187500.0224,-187500.0224,-187500.0224,-176986.0747,-187500.0224,-182744.4652,-187500.0224,-187500.0224,0.342,-0.068,0.926,192,0,0,0,0,0,0,0,0,0,0
 2023-06-27 18:18:09.177,-187500.0224,-187500.0224,-187500.0224,-177176.221,-187500.0224,-183097.958,-187500.0224,-187500.0224,0.342,-0.068,0.926,192,0,0,0,0,0,0,0,0,0,0
 2023-06-27 18:18:09.177,-187500.0224,-187500.0224,-187500.0224,-177954.6652,-187500.0224,-184523.1276,-187500.0224,-187500.0224,0.34,-0.062,0.922,192,10,160,254,16,28,208,0,0,0,0
 2023-06-27 18:18:09.177,-187500.0224,-187500.0224,-187500.0224,-178197.0922,-187500.0224,-184954.2704,-187500.0224,-187500.0224,0.34,-0.062,0.922,192,0,0,0,0,0,0,0,0,0,0
 2023-06-27 18:18:09.177,-187500.0224,-187500.0224,-187500.0224,-177623.3453,-187500.0224,-183898.1728,-187500.0224,-187500.0224,0.34,-0.062,0.922,192,0,0,0,0,0,0,0,0,0,0
 2023-06-27 18:18:09.177,-187500.0224,-187500.0224,-187500.0224,-176998.4576,-187500.0224,-182766.2582,-187500.0224,-187500.0224,0.34,-0.062,0.922,192,0,0,0,0,0,0,0,0,0,0
 2023-06-27 18:18:09.177,-187500.0224,-187500.0224,-187500.0224,-177177.1821,-187500.0224,-183100.9979,-187500.0224,-187500.0224,0.34,-0.062,0.922,192,0,0,0,0,0,0,0,0,0,0
 2023-06-27 18:18:09.177,-187500.0224,-187500.0224,-187500.0224,-177953.6146,-187500.0224,-184521.9653,-187500.0224,-187500.0224,0.34,-0.062,0.922,192,0,0,0,0,0,0,0,0,0,0
 2023-06-27 18:18:09.177,-187500.0224,-187500.0224,-187500.0224,-178200.1767,-187500.0224,-184963.1664,-187500.0224,-187500.0224,0.34,-0.062,0.922,192,0,0,0,0,0,0,0,0,0,0
 2023-06-27 18:18:09.177,-187500.0224,-187500.0224,-187500.0224,-177633.2024,-187500.0224,-183920.234,-187500.0224,-187500.0224,0.34,-0.062,0.922,192,0,0,0,0,0,0,0,0,0,0
 2023-06-27 18:18:09.177,-187500.0224,-187500.0224,-187500.0224,-177005.3419,-187500.0224,-182782.5302,-187500.0224,-187500.0224,0.34,-0.062,0.922,192,0,0,0,0,0,0,0,0,0,0
 2023-06-27 18:18:09.177,-187500.0224,-187500.0224,-187500.0224,-177178.635,-187500.0224,-183103.7471,-187500.0224,-187500.0224,0.34,-0.062,0.922,192,0,0,0,0,0,0,0,0,0,0
 2023-06-27 18:18:09.177,-187500.0224,-187500.0224,-187500.0224,-177949.5466,-187500.0224,-184516.7127,-187500.0224,-187500.0224,0.34,-0.066,0.922,192,10,160,253,240,28,208,0,0,0,0
 2023-06-27 18:18:09.177,-187500.0224,-187500.0224,-187500.0224,-178204.1106,-187500.0224,-184972.5541,-187500.0224,-187500.0224,0.34,-0.066,0.922,192,0,0,0,0,0,0,0,0,0,0
 2023-06-27 18:18:09.177,-187500.0224,-187500.0224,-187500.0224,-177645.8982,-187500.0224,-183945.8491,-187500.0224,-187500.0224,0.34,-0.066,0.922,192,0,0,0,0,0,0,0,0,0,0
 2023-06-27 18:18:09.177,-187500.0224,-187500.0224,-187500.0224,-177013.5673,-187500.0224,-182800.881,-187500.0224,-187500.0224,0.34,-0.066,0.922,192,0,0,0,0,0,0,0,0,0,0
 2023-06-27 18:18:09.177,-187500.0224,-187500.0224,-187500.0224,-177179.1267,-187500.0224,-183107.2787,-187500.0224,-187500.0224,0.34,-0.066,0.922,192,0,0,0,0,0,0,0,0,0,0
 2023-06-27 18:18:09.177,-187500.0224,-187500.0224,-187500.0224,-177953.0111,-187500.0224,-184522.1218,-187500.0224,-187500.0224,0.34,-0.066,0.922,192,0,0,0,0,0,0,0,0,0,0
 2023-06-27 18:18:09.177,-187500.0224,-187500.0224,-187500.0224,-178215.5547,-187500.0224,-184991.7096,-187500.0224,-187500.0224,0.34,-0.066,0.922,192,0,0,0,0,0,0,0,0,0,0
 2023-06-27 18:18:09.177,-187500.0224,-187500.0224,-187500.0224,-177664.8078,-187500.0224,-183976.9404,-187500.0224,-187500.0224,0.34,-0.066,0.922,192,0,0,0,0,0,0,0,0,0,0
 2023-06-27 18:18:09.177,-187500.0224,-187500.0224,-187500.0224,-177025.1455,-187500.0224,-182818.9859,-187500.0224,-187500.0224,0.34,-0.066,0.922,192,0,0,0,0,0,0,0,0,0,0
 2023-06-27 18:18:09.177,-187500.0224,-187500.0224,-187500.0224,-177179.7526,-187500.0224,-183106.5411,-187500.0224,-187500.0224,0.34,-0.066,0.922,192,0,0,0,0,0,0,0,0,0,0
 2023-06-27 18:18:09.177,-187500.0224,-187500.0224,-187500.0224,-177952.1841,-187500.0224,-184520.1772,-187500.0224,-187500.0224,0.342,-0.064,0.92,192,10,176,254,0,28,192,0,0,0,0
 2023-06-27 18:18:09.654,-187500.0224,-187500.0224,-187500.0224,-178225.5683,-187500.0224,-185008.3393,-187500.0224,-187500.0224,0.342,-0.064,0.92,192,0,0,0,0,0,0,0,0,0,0
 2023-06-27 18:18:09.655,-187500.0224,-187500.0224,-187500.0224,-177678.42,-187500.0224,-184002.9355,-187500.0224,-187500.0224,0.342,-0.064,0.92,192,0,0,0,0,0,0,0,0,0,0
 2023-06-27 18:18:09.655,-187500.0224,-187500.0224,-187500.0224,-177033.7957,-187500.0224,-182836.8003,-187500.0224,-187500.0224,0.342,-0.064,0.92,192,0,0,0,0,0,0,0,0,0,0
 2023-06-27 18:18:09.655,-187500.0224,-187500.0224,-187500.0224,-177182.5465,-187500.0224,-183112.4643,-187500.0224,-187500.0224,0.342,-0.064,0.92,192,0,0,0,0,0,0,0,0,0,0
 2023-06-27 18:18:09.655,-187500.0224,-187500.0224,-187500.0224,-177952.0053,-187500.0224,-184521.4289,-187500.0224,-187500.0224,0.342,-0.064,0.92,192,0,0,0,0,0,0,0,0,0,0
 2023-06-27 18:18:09.655,-187500.0224,-187500.0224,-187500.0224,-178229.3905,-187500.0224,-185018.3082,-187500.0224,-187500.0224,0.342,-0.064,0.92,192,0,0,0,0,0,0,0,0,0,0
 2023-06-27 18:18:09.655,-187500.0224,-187500.0224,-187500.0224,-177690.2664,-187500.0224,-184026.7624,-187500.0224,-187500.0224,0.342,-0.064,0.92,192,0,0,0,0,0,0,0,0,0,0
 2023-06-27 18:18:09.655,-187500.0224,-187500.0224,-187500.0224,-177040.8365,-187500.0224,-182852.2006,-187500.0224,-187500.0224,0.342,-0.064,0.92,192,0,0,0,0,0,0,0,0,0,0
 2023-06-27 18:18:09.655,-187500.0224,-187500.0224,-187500.0224,-177178.5679,-187500.0224,-183109.4468,-187500.0224,-187500.0224,0.342,-0.064,0.92,192,0,0,0,0,0,0,0,0,0,0
 2023-06-27 18:18:09.655,-187500.0224,-187500.0224,-187500.0224,-177952.2735,-187500.0224,-184521.7418,-187500.0224,-187500.0224,0.346,-0.066,0.912,192,10,208,253,240,28,128,0,0,0,0
 2023-06-27 18:18:09.655,-187500.0224,-187500.0224,-187500.0224,-178240.164,-187500.0224,-185035.8319,-187500.0224,-187500.0224,0.346,-0.066,0.912,192,0,0,0,0,0,0,0,0,0,0
 2023-06-27 18:18:09.655,-187500.0224,-187500.0224,-187500.0224,-177706.6726,-187500.0224,-184055.5291,-187500.0224,-187500.0224,0.346,-0.066,0.912,192,0,0,0,0,0,0,0,0,0,0
 2023-06-27 18:18:09.655,-187500.0224,-187500.0224,-187500.0224,-177054.9628,-187500.0224,-182874.5077,-187500.0224,-187500.0224,0.346,-0.066,0.912,192,0,0,0,0,0,0,0,0,0,0
 2023-06-27 18:18:09.655,-187500.0224,-187500.0224,-187500.0224,-177183.977,-187500.0224,-183115.37,-187500.0224,-187500.0224,0.346,-0.066,0.912,192,0,0,0,0,0,0,0,0,0,0
 2023-06-27 18:18:09.655,-187500.0224,-187500.0224,-187500.0224,-177951.8936,-187500.0224,-184520.7136,-187500.0224,-187500.0224,0.346,-0.066,0.912,192,0,0,0,0,0,0,0,0,0,0
 2023-06-27 18:18:09.655,-187500.0224,-187500.0224,-187500.0224,-178246.0425,-187500.0224,-185046.8737,-187500.0224,-187500.0224,0.346,-0.066,0.912,192,0,0,0,0,0,0,0,0,0,0
 2023-06-27 18:18:09.655,-187500.0224,-187500.0224,-187500.0224,-177722.7658,-187500.0224,-184082.3065,-187500.0224,-187500.0224,0.346,-0.066,0.912,192,0,0,0,0,0,0,0,0,0,0
 2023-06-27 18:18:09.655,-187500.0224,-187500.0224,-187500.0224,-177067.3009,-187500.0224,-182893.6407,-187500.0224,-187500.0224,0.346,-0.066,0.912,192,0,0,0,0,0,0,0,0,0,0
 2023-06-27 18:18:09.655,-187500.0224,-187500.0224,-187500.0224,-177186.771,-187500.0224,-183118.1193,-187500.0224,-187500.0224,0.346,-0.066,0.912,192,0,0,0,0,0,0,0,0,0,0
 2023-06-27 18:18:09.655,-187500.0224,-187500.0224,-187500.0224,-177953.1676,-187500.0224,-184521.0042,-187500.0224,-187500.0224,0.348,-0.066,0.916,192,10,224,253,240,28,160,0,0,0,0
 2023-06-27 18:18:09.655,-187500.0224,-187500.0224,-187500.0224,-178255.2067,-187500.0224,-185062.1623,-187500.0224,-187500.0224,0.348,-0.066,0.916,192,0,0,0,0,0,0,0,0,0,0
 2023-06-27 18:18:09.655,-187500.0224,-187500.0224,-187500.0224,-177737.2945,-187500.0224,-184108.2792,-187500.0224,-187500.0224,0.348,-0.066,0.916,192,0,0,0,0,0,0,0,0,0,0
 2023-06-27 18:18:09.655,-187500.0224,-187500.0224,-187500.0224,-177072.1736,-187500.0224,-182905.666,-187500.0224,-187500.0224,0.348,-0.066,0.916,192,0,0,0,0,0,0,0,0,0,0
 2023-06-27 18:18:09.655,-187500.0224,-187500.0224,-187500.0224,-177184.2229,-187500.0224,-183116.0182,-187500.0224,-187500.0224,0.348,-0.066,0.916,192,0,0,0,0,0,0,0,0,0,0
 2023-06-27 18:18:09.655,-187500.0224,-187500.0224,-187500.0224,-177950.5301,-187500.0224,-184517.6067,-187500.0224,-187500.0224,0.348,-0.066,0.916,192,0,0,0,0,0,0,0,0,0,0
 2023-06-27 18:18:09.655,-187500.0224,-187500.0224,-187500.0224,-178259.8335,-187500.0224,-185071.93,-187500.0224,-187500.0224,0.348,-0.066,0.916,192,0,0,0,0,0,0,0,0,0,0
 2023-06-27 18:18:09.655,-187500.0224,-187500.0224,-187500.0224,-177749.3197,-187500.0224,-184132.218,-187500.0224,-187500.0224,0.348,-0.066,0.916,192,0,0,0,0,0,0,0,0,0,0
 2023-06-27 18:18:09.655,-187500.0224,-187500.0224,-187500.0224,-177085.5176,-187500.0224,-182927.6377,-187500.0224,-187500.0224,0.348,-0.066,0.916,192,0,0,0,0,0,0,0,0,0,0
 2023-06-27 18:18:09.655,-187500.0224,-187500.0224,-187500.0224,-177188.738,-187500.0224,-183122.7908,-187500.0224,-187500.0224,0.348,-0.066,0.916,192,0,0,0,0,0,0,0,0,0,0
 2023-06-27 18:18:09.655,-187500.0224,-187500.0224,-187500.0224,-177950.1278,-187500.0224,-184517.9644,-187500.0224,-187500.0224,0.35,-0.062,0.918,192,10,240,254,16,28,176,0,0,0,0
 2023-06-27 18:18:09.655,-187500.0224,-187500.0224,-187500.0224,-178266.472,-187500.0224,-185085.8775,-187500.0224,-187500.0224,0.35,-0.062,0.918,192,0,0,0,0,0,0,0,0,0,0
 2023-06-27 18:18:09.655,-187500.0224,-187500.0224,-187500.0224,-177761.5908,-187500.0224,-184156.6261,-187500.0224,-187500.0224,0.35,-0.062,0.918,192,0,0,0,0,0,0,0,0,0,0
 2023-06-27 18:18:09.655,-187500.0224,-187500.0224,-187500.0224,-177090.6138,-187500.0224,-182939.0371,-187500.0224,-187500.0224,0.35,-0.062,0.918,192,0,0,0,0,0,0,0,0,0,0
 2023-06-27 18:18:09.655,-187500.0224,-187500.0224,-187500.0224,-177184.2229,-187500.0224,-183116.0853,-187500.0224,-187500.0224,0.35,-0.062,0.918,192,0,0,0,0,0,0,0,0,0,0
 2023-06-27 18:18:09.655,-187500.0224,-187500.0224,-187500.0224,-177946.2833,-187500.0224,-184511.4824,-187500.0224,-187500.0224,0.35,-0.062,0.918,192,0,0,0,0,0,0,0,0,0,0
 2023-06-27 18:18:09.655,-187500.0224,-187500.0224,-187500.0224,-178274.5857,-187500.0224,-185099.7579,-187500.0224,-187500.0224,0.35,-0.062,0.918,192,0,0,0,0,0,0,0,0,0,0
 2023-06-27 18:18:09.655,-187500.0224,-187500.0224,-187500.0224,-177776.79,-187500.0224,-184181.2577,-187500.0224,-187500.0224,0.35,-0.062,0.918,192,0,0,0,0,0,0,0,0,0,0
 2023-06-27 18:18:09.655,-187500.0224,-187500.0224,-187500.0224,-177098.7722,-187500.0224,-182951.0624,-187500.0224,-187500.0224,0.35,-0.062,0.918,192,0,0,0,0,0,0,0,0,0,0
 2023-06-27 18:18:09.655,-187500.0224,-187500.0224,-187500.0224,-177183.3288,-187500.0224,-183112.8667,-187500.0224,-187500.0224,0.35,-0.062,0.918,192,0,0,0,0,0,0,0,0,0,0
 2023-06-27 18:18:09.655,-187500.0224,-187500.0224,-187500.0224,-177944.6069,-187500.0224,-184507.9061,-187500.0224,-187500.0224,0.346,-0.06,0.926,192,10,208,254,32,28,240,0,0,0,0
 2023-06-27 18:18:09.655,-187500.0224,-187500.0224,-187500.0224,-178279.5925,-187500.0224,-185109.3692,-187500.0224,-187500.0224,0.346,-0.06,0.926,192,0,0,0,0,0,0,0,0,0,0
 2023-06-27 18:18:09.656,-187500.0224,-187500.0224,-187500.0224,-177787.1612,-187500.0224,-184200.4802,-187500.0224,-187500.0224,0.346,-0.06,0.926,192,0,0,0,0,0,0,0,0,0,0
 2023-06-27 18:18:09.656,-187500.0224,-187500.0224,-187500.0224,-177100.1133,-187500.0224,-182954.7951,-187500.0224,-187500.0224,0.346,-0.06,0.926,192,0,0,0,0,0,0,0,0,0,0
 2023-06-27 18:18:09.656,-187500.0224,-187500.0224,-187500.0224,-177175.4834,-187500.0224,-183099.8803,-187500.0224,-187500.0224,0.346,-0.06,0.926,192,0,0,0,0,0,0,0,0,0,0
 2023-06-27 18:18:09.656,-187500.0224,-187500.0224,-187500.0224,-177937.4096,-187500.0224,-184496.3055,-187500.0224,-187500.0224,0.346,-0.06,0.926,192,0,0,0,0,0,0,0,0,0,0
 2023-06-27 18:18:09.656,-187500.0224,-187500.0224,-187500.0224,-178280.643,-187500.0224,-185113.2807,-187500.0224,-187500.0224,0.346,-0.06,0.926,192,0,0,0,0,0,0,0,0,0,0
 2023-06-27 18:18:09.656,-187500.0224,-187500.0224,-187500.0224,-177792.4362,-187500.0224,-184214.383,-187500.0224,-187500.0224,0.346,-0.06,0.926,192,0,0,0,0,0,0,0,0,0,0
 2023-06-27 18:18:09.656,-187500.0224,-187500.0224,-187500.0224,-177102.2143,-187500.0224,-182961.7018,-187500.0224,-187500.0224,0.346,-0.06,0.926,192,0,0,0,0,0,0,0,0,0,0
 2023-06-27 18:18:09.656,-187500.0224,-187500.0224,-187500.0224,-177173.1588,-187500.0224,-183097.9357,-187500.0224,-187500.0224,0.346,-0.06,0.926,192,0,0,0,0,0,0,0,0,0,0
 2023-06-27 18:18:09.656,-187500.0224,-187500.0224,-187500.0224,-177936.0685,-187500.0224,-184496.2385,-187500.0224,-187500.0224,0.342,-0.068,0.926,192,10,176,253,224,28,240,0,0,0,0
 2023-06-27 18:18:09.656,-187500.0224,-187500.0224,-187500.0224,-178285.8733,-187500.0224,-185125.2389,-187500.0224,-187500.0224,0.342,-0.068,0.926,192,0,0,0,0,0,0,0,0,0,0
 2023-06-27 18:18:09.656,-187500.0224,-187500.0224,-187500.0224,-177804.0815,-187500.0224,-184236.7794,-187500.0224,-187500.0224,0.342,-0.068,0.926,192,0,0,0,0,0,0,0,0,0,0
 2023-06-27 18:18:09.656,-187500.0224,-187500.0224,-187500.0224,-177108.4952,-187500.0224,-182974.8223,-187500.0224,-187500.0224,0.342,-0.068,0.926,192,0,0,0,0,0,0,0,0,0,0
 2023-06-27 18:18:09.656,-187500.0224,-187500.0224,-187500.0224,-177175.8857,-187500.0224,-183104.5295,-187500.0224,-187500.0224,0.342,-0.068,0.926,192,0,0,0,0,0,0,0,0,0,0
 2023-06-27 18:18:09.656,-187500.0224,-187500.0224,-187500.0224,-177940.0471,-187500.0224,-184505.2015,-187500.0224,-187500.0224,0.342,-0.068,0.926,192,0,0,0,0,0,0,0,0,0,0
 2023-06-27 18:18:09.656,-187500.0224,-187500.0224,-187500.0224,-178293.0706,-187500.0224,-185139.2088,-187500.0224,-187500.0224,0.342,-0.068,0.926,192,0,0,0,0,0,0,0,0,0,0
 2023-06-27 18:18:09.656,-187500.0224,-187500.0224,-187500.0224,-177817.4925,-187500.0224,-184260.7852,-187500.0224,-187500.0224,0.342,-0.068,0.926,192,0,0,0,0,0,0,0,0,0,0
 2023-06-27 18:18:09.656,-187500.0224,-187500.0224,-187500.0224,-177116.6536,-187500.0224,-182988.1216,-187500.0224,-187500.0224,0.342,-0.068,0.926,192,0,0,0,0,0,0,0,0,0,0
 2023-06-27 18:18:09.656,-187500.0224,-187500.0224,-187500.0224,-177175.5057,-187500.0224,-183101.7131,-187500.0224,-187500.0224,0.342,-0.068,0.926,192,0,0,0,0,0,0,0,0,0,0
 2023-06-27 18:18:09.656,-187500.0224,-187500.0224,-187500.0224,-177938.0131,-187500.0224,-184499.4348,-187500.0224,-187500.0224,0.346,-0.068,0.926,192,10,208,253,224,28,240,0,0,0,0
 2023-06-27 18:18:09.656,-187500.0224,-187500.0224,-187500.0224,-178297.5186,-187500.0224,-185146.1378,-187500.0224,-187500.0224,0.346,-0.068,0.926,192,0,0,0,0,0,0,0,0,0,0
 2023-06-27 18:18:09.656,-187500.0224,-187500.0224,-187500.0224,-177827.0367,-187500.0224,-184278.1301,-187500.0224,-187500.0224,0.346,-0.068,0.926,192,0,0,0,0,0,0,0,0,0,0
 2023-06-27 18:18:09.656,-187500.0224,-187500.0224,-187500.0224,-177118.4417,-187500.0224,-182991.9661,-187500.0224,-187500.0224,0.346,-0.068,0.926,192,0,0,0,0,0,0,0,0,0,0
 2023-06-27 18:18:09.656,-187500.0224,-187500.0224,-187500.0224,-177166.2074,-187500.0224,-183086.2457,-187500.0224,-187500.0224,0.346,-0.068,0.926,192,0,0,0,0,0,0,0,0,0,0
 2023-06-27 18:18:09.656,-187500.0224,-187500.0224,-187500.0224,-177927.2396,-187500.0224,-184481.4416,-187500.0224,-187500.0224,0.346,-0.068,0.926,192,0,0,0,0,0,0,0,0,0,0
 2023-06-27 18:18:09.656,-187500.0224,-187500.0224,-187500.0224,-178299.2844,-187500.0224,-185148.6635,-187500.0224,-187500.0224,0.346,-0.068,0.926,192,0,0,0,0,0,0,0,0,0,0
 2023-06-27 18:18:09.656,-187500.0224,-187500.0224,-187500.0224,-177839.1067,-187500.0224,-184296.9056,-187500.0224,-187500.0224,0.346,-0.068,0.926,192,0,0,0,0,0,0,0,0,0,0
 2023-06-27 18:18:09.656,-187500.0224,-187500.0224,-187500.0224,-177123.4262,-187500.0224,-182998.2246,-187500.0224,-187500.0224,0.346,-0.068,0.926,192,0,0,0,0,0,0,0,0,0,0
 2023-06-27 18:18:09.656,-187500.0224,-187500.0224,-187500.0224,-177161.3124,-187500.0224,-183075.5839,-187500.0224,-187500.0224,0.346,-0.068,0.926,192,0,0,0,0,0,0,0,0,0,0
 2023-06-27 18:18:09.656,-187500.0224,-187500.0224,-187500.0224,-177918.0754,-187500.0224,-184466.1977,-187500.0224,-187500.0224,0.338,-0.07,0.928,192,10,144,253,208,29,0,0,0,0,0
 2023-06-27 18:18:09.656,-187500.0224,-187500.0224,-187500.0224,-178294.1882,-187500.0224,-185143.4109,-187500.0224,-187500.0224,0.338,-0.07,0.928,192,0,0,0,0,0,0,0,0,0,0
 2023-06-27 18:18:09.656,-187500.0224,-187500.0224,-187500.0224,-177837.0056,-187500.0224,-184298.4032,-187500.0224,-187500.0224,0.338,-0.07,0.928,192,0,0,0,0,0,0,0,0,0,0
 2023-06-27 18:18:09.656,-187500.0224,-187500.0224,-187500.0224,-177116.8994,-187500.0224,-182988.7921,-187500.0224,-187500.0224,0.338,-0.07,0.928,192,0,0,0,0,0,0,0,0,0,0
 2023-06-27 18:18:09.656,-187500.0224,-187500.0224,-187500.0224,-177146.2026,-187500.0224,-183050.4382,-187500.0224,-187500.0224,0.338,-0.07,0.928,192,0,0,0,0,0,0,0,0,0,0
 2023-06-27 18:18:09.656,-187500.0224,-187500.0224,-187500.0224,-177903.5244,-187500.0224,-184441.5438,-187500.0224,-187500.0224,0.338,-0.07,0.928,192,0,0,0,0,0,0,0,0,0,0
 2023-06-27 18:18:09.656,-187500.0224,-187500.0224,-187500.0224,-178290.746,-187500.0224,-185137.2418,-187500.0224,-187500.0224,0.338,-0.07,0.928,192,0,0,0,0,0,0,0,0,0,0
 2023-06-27 18:18:09.656,-187500.0224,-187500.0224,-187500.0224,-177845.1416,-187500.0224,-184311.6131,-187500.0224,-187500.0224,0.338,-0.07,0.928,192,0,0,0,0,0,0,0,0,0,0
 2023-06-27 18:18:09.656,-187500.0224,-187500.0224,-187500.0224,-177122.1968,-187500.0224,-182996.6152,-187500.0224,-187500.0224,0.338,-0.07,0.928,192,0,0,0,0,0,0,0,0,0,0
 2023-06-27 18:18:09.656,-187500.0224,-187500.0224,-187500.0224,-177141.0617,-187500.0224,-183040.1564,-187500.0224,-187500.0224,0.338,-0.07,0.928,192,0,0,0,0,0,0,0,0,0,0
 2023-06-27 18:18:09.656,-187500.0224,-187500.0224,-187500.0224,-177895.1648,-187500.0224,-184426.9034,-187500.0224,-187500.0224,0.34,-0.07,0.924,192,10,160,253,208,28,224,0,0,0,0
 2023-06-27 18:18:09.656,-187500.0224,-187500.0224,-187500.0224,-178290.4107,-187500.0224,-185138.2029,-187500.0224,-187500.0224,0.34,-0.07,0.924,192,0,0,0,0,0,0,0,0,0,0
 2023-06-27 18:18:09.656,-187500.0224,-187500.0224,-187500.0224,-177852.2048,-187500.0224,-184326.7452,-187500.0224,-187500.0224,0.34,-0.07,0.924,192,0,0,0,0,0,0,0,0,0,0
 2023-06-27 18:18:09.656,-187500.0224,-187500.0224,-187500.0224,-177124.9684,-187500.0224,-183003.1419,-187500.0224,-187500.0224,0.34,-0.07,0.924,192,0,0,0,0,0,0,0,0,0,0
 2023-06-27 18:18:09.656,-187500.0224,-187500.0224,-187500.0224,-177136.2114,-187500.0224,-183032.1322,-187500.0224,-187500.0224,0.34,-0.07,0.924,192,0,0,0,0,0,0,0,0,0,0
 2023-06-27 18:18:09.656,-187500.0224,-187500.0224,-187500.0224,-177889.7781,-187500.0224,-184416.6663,-187500.0224,-187500.0224,0.34,-0.07,0.924,192,0,0,0,0,0,0,0,0,0,0
 2023-06-27 18:18:09.656,-187500.0224,-187500.0224,-187500.0224,-178292.5118,-187500.0224,-185140.8181,-187500.0224,-187500.0224,0.34,-0.07,0.924,192,0,0,0,0,0,0,0,0,0,0
 2023-06-27 18:18:09.656,-187500.0224,-187500.0224,-187500.0224,-177863.4701,-187500.0224,-184345.6324,-187500.0224,-187500.0224,0.34,-0.07,0.924,192,0,0,0,0,0,0,0,0,0,0
 2023-06-27 18:18:09.656,-187500.0224,-187500.0224,-187500.0224,-177133.2609,-187500.0224,-183016.5753,-187500.0224,-187500.0224,0.34,-0.07,0.924,192,0,0,0,0,0,0,0,0,0,0
 2023-06-27 18:18:09.656,-187500.0224,-187500.0224,-187500.0224,-177131.6292,-187500.0224,-183024.1526,-187500.0224,-187500.0224,0.34,-0.07,0.924,192,0,0,0,0,0,0,0,0,0,0
 2023-06-27 18:18:09.656,-187500.0224,-187500.0224,-187500.0224,-177878.0434,-187500.0224,-184398.0473,-187500.0224,-187500.0224,0.34,-0.066,0.924,192,10,160,253,240,28,224,0,0,0,0
 2023-06-27 18:18:09.656,-187500.0224,-187500.0224,-187500.0224,-178288.1085,-187500.0224,-185137.51,-187500.0224,-187500.0224,0.34,-0.066,0.924,192,0,0,0,0,0,0,0,0,0,0
 2023-06-27 18:18:09.656,-187500.0224,-187500.0224,-187500.0224,-177866.2864,-187500.0224,-184355.8248,-187500.0224,-187500.0224,0.34,-0.066,0.924,192,0,0,0,0,0,0,0,0,0,0
 2023-06-27 18:18:09.656,-187500.0224,-187500.0224,-187500.0224,-177131.1375,-187500.0224,-183018.3411,-187500.0224,-187500.0224,0.34,-0.066,0.924,192,0,0,0,0,0,0,0,0,0,0
 2023-06-27 18:18:09.657,-187500.0224,-187500.0224,-187500.0224,-177125.0355,-187500.0224,-183015.726,-187500.0224,-187500.0224,0.34,-0.066,0.924,192,0,0,0,0,0,0,0,0,0,0
 2023-06-27 18:18:09.657,-187500.0224,-187500.0224,-187500.0224,-177870.6226,-187500.0224,-184387.2514,-187500.0224,-187500.0224,0.34,-0.066,0.924,192,0,0,0,0,0,0,0,0,0,0
 2023-06-27 18:18:09.657,-187500.0224,-187500.0224,-187500.0224,-178289.6955,-187500.0224,-185140.4828,-187500.0224,-187500.0224,0.34,-0.066,0.924,192,0,0,0,0,0,0,0,0,0,0
 2023-06-27 18:18:09.657,-187500.0224,-187500.0224,-187500.0224,-177873.2601,-187500.0224,-184369.6158,-187500.0224,-187500.0224,0.34,-0.066,0.924,192,0,0,0,0,0,0,0,0,0,0
 2023-06-27 18:18:09.657,-187500.0224,-187500.0224,-187500.0224,-177133.0151,-187500.0224,-183023.2809,-187500.0224,-187500.0224,0.34,-0.066,0.924,192,0,0,0,0,0,0,0,0,0,0
 2023-06-27 18:18:09.657,-187500.0224,-187500.0224,-187500.0224,-177119.2911,-187500.0224,-183005.623,-187500.0224,-187500.0224,0.34,-0.066,0.924,192,0,0,0,0,0,0,0,0,0,0
 2023-06-27 18:18:09.657,-187500.0224,-187500.0224,-187500.0224,-177863.1348,-187500.0224,-184373.9968,-187500.0224,-187500.0224,0.334,-0.064,0.926,192,10,112,254,0,28,240,0,0,0,0
 2023-06-27 18:18:09.657,-187500.0224,-187500.0224,-187500.0224,-178286.1192,-187500.0224,-185136.683,-187500.0224,-187500.0224,0.334,-0.064,0.926,192,0,0,0,0,0,0,0,0,0,0
 2023-06-27 18:18:09.657,-187500.0224,-187500.0224,-187500.0224,-177882.2455,-187500.0224,-184385.2844,-187500.0224,-187500.0224,0.334,-0.064,0.926,192,0,0,0,0,0,0,0,0,0,0
 2023-06-27 18:18:09.657,-187500.0224,-187500.0224,-187500.0224,-177143.0957,-187500.0224,-183037.9213,-187500.0224,-187500.0224,0.334,-0.064,0.926,192,0,0,0,0,0,0,0,0,0,0
 2023-06-27 18:18:09.657,-187500.0224,-187500.0224,-187500.0224,-177117.6594,-187500.0224,-183001.6667,-187500.0224,-187500.0224,0.334,-0.064,0.926,192,0,0,0,0,0,0,0,0,0,0
 2023-06-27 18:18:09.657,-187500.0224,-187500.0224,-187500.0224,-177859.4467,-187500.0224,-184364.8773,-187500.0224,-187500.0224,0.334,-0.064,0.926,192,0,0,0,0,0,0,0,0,0,0
 2023-06-27 18:18:09.657,-187500.0224,-187500.0224,-187500.0224,-178291.6177,-187500.0224,-185142.785,-187500.0224,-187500.0224,0.334,-0.064,0.926,192,0,0,0,0,0,0,0,0,0,0
 2023-06-27 18:18:09.657,-187500.0224,-187500.0224,-187500.0224,-177889.5322,-187500.0224,-184399.746,-187500.0224,-187500.0224,0.334,-0.064,0.926,192,0,0,0,0,0,0,0,0,0,0
 2023-06-27 18:18:09.657,-187500.0224,-187500.0224,-187500.0224,-177145.4203,-187500.0224,-183044.9844,-187500.0224,-187500.0224,0.334,-0.064,0.926,192,0,0,0,0,0,0,0,0,0,0
 2023-06-27 18:18:09.657,-187500.0224,-187500.0224,-187500.0224,-177113.6584,-187500.0224,-182995.4529,-187500.0224,-187500.0224,0.334,-0.064,0.926,192,0,0,0,0,0,0,0,0,0,0
 2023-06-27 18:18:09.657,-187500.0224,-187500.0224,-187500.0224,-177848.7626,-187500.0224,-184348.7393,-187500.0224,-187500.0224,0.334,-0.064,0.92,192,10,112,254,0,28,192,0,0,0,0
 2023-06-27 18:18:09.657,-187500.0224,-187500.0224,-187500.0224,-178287.2591,-187500.0224,-185138.65,-187500.0224,-187500.0224,0.334,-0.064,0.92,192,0,0,0,0,0,0,0,0,0,0
 2023-06-27 18:18:09.657,-187500.0224,-187500.0224,-187500.0224,-177897.2435,-187500.0224,-184413.4253,-187500.0224,-187500.0224,0.334,-0.064,0.92,192,0,0,0,0,0,0,0,0,0,0
 2023-06-27 18:18:09.657,-187500.0224,-187500.0224,-187500.0224,-177150.1812,-187500.0224,-183053.1428,-187500.0224,-187500.0224,0.334,-0.064,0.92,192,0,0,0,0,0,0,0,0,0,0
 2023-06-27 18:18:09.657,-187500.0224,-187500.0224,-187500.0224,-177108.9422,-187500.0224,-182987.5851,-187500.0224,-187500.0224,0.334,-0.064,0.92,192,0,0,0,0,0,0,0,0,0,0
 2023-06-27 18:18:09.657,-187500.0224,-187500.0224,-187500.0224,-177844.2699,-187500.0224,-184338.4128,-187500.0224,-187500.0224,0.334,-0.064,0.92,192,0,0,0,0,0,0,0,0,0,0
 2023-06-27 18:18:09.657,-187500.0224,-187500.0224,-187500.0224,-178290.8578,-187500.0224,-185142.1592,-187500.0224,-187500.0224,0.334,-0.064,0.92,192,0,0,0,0,0,0,0,0,0,0
 2023-06-27 18:18:09.657,-187500.0224,-187500.0224,-187500.0224,-177907.883,-187500.0224,-184430.3008,-187500.0224,-187500.0224,0.334,-0.064,0.92,192,0,0,0,0,0,0,0,0,0,0
 2023-06-27 18:18:09.657,-187500.0224,-187500.0224,-187500.0224,-177158.0043,-187500.0224,-183064.4751,-187500.0224,-187500.0224,0.334,-0.064,0.92,192,0,0,0,0,0,0,0,0,0,0
 2023-06-27 18:18:09.657,-187500.0224,-187500.0224,-187500.0224,-177108.5399,-187500.0224,-182983.5395,-187500.0224,-187500.0224,0.334,-0.064,0.92,192,0,0,0,0,0,0,0,0,0,0
 2023-06-27 18:18:09.657,-187500.0224,-187500.0224,-187500.0224,-177838.3243,-187500.0224,-184325.4264,-187500.0224,-187500.0224,0.338,-0.07,0.922,192,10,144,253,208,28,208,0,0,0,0
 2023-06-27 18:18:10.136,-187500.0224,-187500.0224,-187500.0224,-178292.2212,-187500.0224,-185143.3885,-187500.0224,-187500.0224,0.338,-0.07,0.922,192,0,0,0,0,0,0,0,0,0,0
 2023-06-27 18:18:10.136,-187500.0224,-187500.0224,-187500.0224,-177916.0414,-187500.0224,-184445.0753,-187500.0224,-187500.0224,0.338,-0.07,0.922,192,0,0,0,0,0,0,0,0,0,0
 2023-06-27 18:18:10.136,-187500.0224,-187500.0224,-187500.0224,-177162.0276,-187500.0224,-183072.4323,-187500.0224,-187500.0224,0.338,-0.07,0.922,192,0,0,0,0,0,0,0,0,0,0
 2023-06-27 18:18:10.136,-187500.0224,-187500.0224,-187500.0224,-177102.9073,-187500.0224,-182973.5259,-187500.0224,-187500.0224,0.338,-0.07,0.922,192,0,0,0,0,0,0,0,0,0,0
 2023-06-27 18:18:10.136,-187500.0224,-187500.0224,-187500.0224,-177826.2544,-187500.0224,-184304.9075,-187500.0224,-187500.0224,0.338,-0.07,0.922,192,0,0,0,0,0,0,0,0,0,0
 2023-06-27 18:18:10.136,-187500.0224,-187500.0224,-187500.0224,-178287.7285,-187500.0224,-185138.1359,-187500.0224,-187500.0224,0.338,-0.07,0.922,192,0,0,0,0,0,0,0,0,0,0
 2023-06-27 18:18:10.136,-187500.0224,-187500.0224,-187500.0224,-177918.0754,-187500.0224,-184453.3678,-187500.0224,-187500.0224,0.338,-0.07,0.922,192,0,0,0,0,0,0,0,0,0,0
 2023-06-27 18:18:10.136,-187500.0224,-187500.0224,-187500.0224,-177160.3065,-187500.0224,-183074.8016,-187500.0224,-187500.0224,0.338,-0.07,0.922,192,0,0,0,0,0,0,0,0,0,0
 2023-06-27 18:18:10.136,-187500.0224,-187500.0224,-187500.0224,-177095.4194,-187500.0224,-182963.8476,-187500.0224,-187500.0224,0.338,-0.07,0.922,192,0,0,0,0,0,0,0,0,0,0
 2023-06-27 18:18:10.136,-187500.0224,-187500.0224,-187500.0224,-177817.2914,-187500.0224,-184291.2506,-187500.0224,-187500.0224,0.338,-0.07,0.922,192,0,0,0,0,0,0,0,0,0,0
 2023-06-27 18:18:10.136,-187500.0224,-187500.0224,-187500.0224,-178285.4263,-187500.0224,-185136.5265,-187500.0224,-187500.0224,0.344,-0.066,0.928,192,10,192,253,240,29,0,0,0,0,0
 2023-06-27 18:18:10.136,-187500.0224,-187500.0224,-187500.0224,-177924.3786,-187500.0224,-184466.7342,-187500.0224,-187500.0224,0.344,-0.066,0.928,192,0,0,0,0,0,0,0,0,0,0
 2023-06-27 18:18:10.136,-187500.0224,-187500.0224,-187500.0224,-177164.1287,-187500.0224,-183083.8541,-187500.0224,-187500.0224,0.344,-0.066,0.928,192,0,0,0,0,0,0,0,0,0,0
 2023-06-27 18:18:10.136,-187500.0224,-187500.0224,-187500.0224,-177088.021,-187500.0224,-182954.661,-187500.0224,-187500.0224,0.344,-0.066,0.928,192,0,0,0,0,0,0,0,0,0,0
 2023-06-27 18:18:10.136,-187500.0224,-187500.0224,-187500.0224,-177803.1204,-187500.0224,-184271.2682,-187500.0224,-187500.0224,0.344,-0.066,0.928,192,0,0,0,0,0,0,0,0,0,0
 2023-06-27 18:18:10.136,-187500.0224,-187500.0224,-187500.0224,-178282.0512,-187500.0224,-185134.2243,-187500.0224,-187500.0224,0.344,-0.066,0.928,192,0,0,0,0,0,0,0,0,0,0
 2023-06-27 18:18:10.136,-187500.0224,-187500.0224,-187500.0224,-177933.1852,-187500.0224,-184483.3415,-187500.0224,-187500.0224,0.344,-0.066,0.928,192,0,0,0,0,0,0,0,0,0,0
 2023-06-27 18:18:10.136,-187500.0224,-187500.0224,-187500.0224,-177174.4775,-187500.0224,-183100.0368,-187500.0224,-187500.0224,0.344,-0.066,0.928,192,0,0,0,0,0,0,0,0,0,0
 2023-06-27 18:18:10.136,-187500.0224,-187500.0224,-187500.0224,-177091.5079,-187500.0224,-182959.0643,-187500.0224,-187500.0224,0.344,-0.066,0.928,192,0,0,0,0,0,0,0,0,0,0
 2023-06-27 18:18:10.137,-187500.0224,-187500.0224,-187500.0224,-177805.6014,-187500.0224,-184273.2351,-187500.0224,-187500.0224,0.344,-0.066,0.928,192,0,0,0,0,0,0,0,0,0,0
 2023-06-27 18:18:10.137,-187500.0224,-187500.0224,-187500.0224,-178288.2203,-187500.0224,-185143.4779,-187500.0224,-187500.0224,0.34,-0.068,0.922,192,10,160,253,224,28,208,0,0,0,0
 2023-06-27 18:18:10.137,-187500.0224,-187500.0224,-187500.0224,-177940.9859,-187500.0224,-184499.8147,-187500.0224,-187500.0224,0.34,-0.068,0.922,192,0,0,0,0,0,0,0,0,0,0
 2023-06-27 18:18:10.137,-187500.0224,-187500.0224,-187500.0224,-177179.0596,-187500.0224,-183110.9668,-187500.0224,-187500.0224,0.34,-0.068,0.922,192,0,0,0,0,0,0,0,0,0,0
 2023-06-27 18:18:10.137,-187500.0224,-187500.0224,-187500.0224,-177089.4068,-187500.0224,-182955.2198,-187500.0224,-187500.0224,0.34,-0.068,0.922,192,0,0,0,0,0,0,0,0,0,0
 2023-06-27 18:18:10.137,-187500.0224,-187500.0224,-187500.0224,-177800.4605,-187500.0224,-184261.9698,-187500.0224,-187500.0224,0.34,-0.068,0.922,192,0,0,0,0,0,0,0,0,0,0
 2023-06-27 18:18:10.137,-187500.0224,-187500.0224,-187500.0224,-178292.0424,-187500.0224,-185148.3506,-187500.0224,-187500.0224,0.34,-0.068,0.922,192,0,0,0,0,0,0,0,0,0,0
 2023-06-27 18:18:10.137,-187500.0224,-187500.0224,-187500.0224,-177953.7935,-187500.0224,-184520.9371,-187500.0224,-187500.0224,0.34,-0.068,0.922,192,0,0,0,0,0,0,0,0,0,0
 2023-06-27 18:18:10.137,-187500.0224,-187500.0224,-187500.0224,-177189.7885,-187500.0224,-183128.0435,-187500.0224,-187500.0224,0.34,-0.068,0.922,192,0,0,0,0,0,0,0,0,0,0
 2023-06-27 18:18:10.137,-187500.0224,-187500.0224,-187500.0224,-177092.9384,-187500.0224,-182958.349,-187500.0224,-187500.0224,0.34,-0.068,0.922,192,0,0,0,0,0,0,0,0,0,0
 2023-06-27 18:18:10.137,-187500.0224,-187500.0224,-187500.0224,-177797.8677,-187500.0224,-184255.5996,-187500.0224,-187500.0224,0.34,-0.068,0.922,192,0,0,0,0,0,0,0,0,0,0
 2023-06-27 18:18:10.137,-187500.0224,-187500.0224,-187500.0224,-178293.8529,-187500.0224,-185152.508,-187500.0224,-187500.0224,0.342,-0.066,0.922,192,10,176,253,240,28,208,0,0,0,0
 2023-06-27 18:18:10.137,-187500.0224,-187500.0224,-187500.0224,-177964.2764,-187500.0224,-184540.2938,-187500.0224,-187500.0224,0.342,-0.066,0.922,192,0,0,0,0,0,0,0,0,0,0
 2023-06-27 18:18:10.137,-187500.0224,-187500.0224,-187500.0224,-177196.8293,-187500.0224,-183142.3933,-187500.0224,-187500.0224,0.342,-0.066,0.922,192,0,0,0,0,0,0,0,0,0,0
 2023-06-27 18:18:10.137,-187500.0224,-187500.0224,-187500.0224,-177091.8878,-187500.0224,-182959.0196,-187500.0224,-187500.0224,0.342,-0.066,0.922,192,0,0,0,0,0,0,0,0,0,0
 2023-06-27 18:18:10.137,-187500.0224,-187500.0224,-187500.0224,-177793.9561,-187500.0224,-184250.6822,-187500.0224,-187500.0224,0.342,-0.066,0.922,192,0,0,0,0,0,0,0,0,0,0
 2023-06-27 18:18:10.137,-187500.0224,-187500.0224,-187500.0224,-178295.3505,-187500.0224,-185157.1796,-187500.0224,-187500.0224,0.342,-0.066,0.922,192,0,0,0,0,0,0,0,0,0,0
 2023-06-27 18:18:10.137,-187500.0224,-187500.0224,-187500.0224,-177974.8712,-187500.0224,-184560.7456,-187500.0224,-187500.0224,0.342,-0.066,0.922,192,0,0,0,0,0,0,0,0,0,0
 2023-06-27 18:18:10.137,-187500.0224,-187500.0224,-187500.0224,-177203.803,-187500.0224,-183157.0561,-187500.0224,-187500.0224,0.342,-0.066,0.922,192,0,0,0,0,0,0,0,0,0,0
 2023-06-27 18:18:10.137,-187500.0224,-187500.0224,-187500.0224,-177089.2056,-187500.0224,-182955.868,-187500.0224,-187500.0224,0.342,-0.066,0.922,192,0,0,0,0,0,0,0,0,0,0
 2023-06-27 18:18:10.137,-187500.0224,-187500.0224,-187500.0224,-177784.7919,-187500.0224,-184235.8406,-187500.0224,-187500.0224,0.342,-0.066,0.922,192,0,0,0,0,0,0,0,0,0,0
 2023-06-27 18:18:10.137,-187500.0224,-187500.0224,-187500.0224,-178295.8869,-187500.0224,-185159.4147,-187500.0224,-187500.0224,0.342,-0.068,0.918,192,10,176,253,224,28,176,0,0,0,0
 2023-06-27 18:18:10.137,-187500.0224,-187500.0224,-187500.0224,-177983.0072,-187500.0224,-184577.7106,-187500.0224,-187500.0224,0.342,-0.068,0.918,192,0,0,0,0,0,0,0,0,0,0
 2023-06-27 18:18:10.137,-187500.0224,-187500.0224,-187500.0224,-177215.9177,-187500.0224,-183176.815,-187500.0224,-187500.0224,0.342,-0.068,0.918,192,0,0,0,0,0,0,0,0,0,0
 2023-06-27 18:18:10.137,-187500.0224,-187500.0224,-187500.0224,-177090.8373,-187500.0224,-182957.902,-187500.0224,-187500.0224,0.342,-0.068,0.918,192,0,0,0,0,0,0,0,0,0,0
 2023-06-27 18:18:10.137,-187500.0224,-187500.0224,-187500.0224,-177778.444,-187500.0224,-184225.5588,-187500.0224,-187500.0224,0.342,-0.068,0.918,192,0,0,0,0,0,0,0,0,0,0
 2023-06-27 18:18:10.137,-187500.0224,-187500.0224,-187500.0224,-178295.4175,-187500.0224,-185161.4264,-187500.0224,-187500.0224,0.342,-0.068,0.918,192,0,0,0,0,0,0,0,0,0,0
 2023-06-27 18:18:10.137,-187500.0224,-187500.0224,-187500.0224,-177989.9809,-187500.0224,-184593.3121,-187500.0224,-187500.0224,0.342,-0.068,0.918,192,0,0,0,0,0,0,0,0,0,0
 2023-06-27 18:18:10.137,-187500.0224,-187500.0224,-187500.0224,-177217.7952,-187500.0224,-183185.4428,-187500.0224,-187500.0224,0.342,-0.068,0.918,192,0,0,0,0,0,0,0,0,0,0
 2023-06-27 18:18:10.137,-187500.0224,-187500.0224,-187500.0224,-177084.9812,-187500.0224,-182951.3753,-187500.0224,-187500.0224,0.342,-0.068,0.918,192,0,0,0,0,0,0,0,0,0,0
 2023-06-27 18:18:10.137,-187500.0224,-187500.0224,-187500.0224,-177771.895,-187500.0224,-184213.243,-187500.0224,-187500.0224,0.342,-0.068,0.918,192,0,0,0,0,0,0,0,0,0,0
 2023-06-27 18:18:10.137,-187500.0224,-187500.0224,-187500.0224,-178299.8879,-187500.0224,-185166.5226,-187500.0224,-187500.0224,0.344,-0.07,0.922,192,10,192,253,208,28,208,0,0,0,0
 2023-06-27 18:18:10.137,-187500.0224,-187500.0224,-187500.0224,-178004.3084,-187500.0224,-184615.5074,-187500.0224,-187500.0224,0.344,-0.07,0.922,192,0,0,0,0,0,0,0,0,0,0
 2023-06-27 18:18:10.137,-187500.0224,-187500.0224,-187500.0224,-177231.1616,-187500.0224,-183205.2017,-187500.0224,-187500.0224,0.344,-0.07,0.922,192,0,0,0,0,0,0,0,0,0,0
 2023-06-27 18:18:10.137,-187500.0224,-187500.0224,-187500.0224,-177090.8373,-187500.0224,-182957.3209,-187500.0224,-187500.0224,0.344,-0.07,0.922,192,0,0,0,0,0,0,0,0,0,0
 2023-06-27 18:18:10.137,-187500.0224,-187500.0224,-187500.0224,-177771.2915,-187500.0224,-184209.5773,-187500.0224,-187500.0224,0.344,-0.07,0.922,192,0,0,0,0,0,0,0,0,0,0
 2023-06-27 18:18:10.137,-187500.0224,-187500.0224,-187500.0224,-178301.5866,-187500.0224,-185170.1436,-187500.0224,-187500.0224,0.344,-0.07,0.922,192,0,0,0,0,0,0,0,0,0,0
 2023-06-27 18:18:10.137,-187500.0224,-187500.0224,-187500.0224,-178013.7185,-187500.0224,-184633.9252,-187500.0224,-187500.0224,0.344,-0.07,0.922,192,0,0,0,0,0,0,0,0,0,0
 2023-06-27 18:18:10.137,-187500.0224,-187500.0224,-187500.0224,-177238.3588,-187500.0224,-183220.0656,-187500.0224,-187500.0224,0.344,-0.07,0.922,192,0,0,0,0,0,0,0,0,0,0
 2023-06-27 18:18:10.137,-187500.0224,-187500.0224,-187500.0224,-177088.7586,-187500.0224,-182955.3986,-187500.0224,-187500.0224,0.344,-0.07,0.922,192,0,0,0,0,0,0,0,0,0,0
 2023-06-27 18:18:10.137,-187500.0224,-187500.0224,-187500.0224,-177763.0437,-187500.0224,-184196.4345,-187500.0224,-187500.0224,0.344,-0.07,0.922,192,0,0,0,0,0,0,0,0,0,0
 2023-06-27 18:18:10.137,-187500.0224,-187500.0224,-187500.0224,-178302.9948,-187500.0224,-185173.921,-187500.0224,-187500.0224,0.342,-0.074,0.924,192,10,176,253,176,28,224,0,0,0,0
 2023-06-27 18:18:10.137,-187500.0224,-187500.0224,-187500.0224,-178026.3472,-187500.0224,-184655.8523,-187500.0224,-187500.0224,0.342,-0.074,0.924,192,0,0,0,0,0,0,0,0,0,0
 2023-06-27 18:18:10.137,-187500.0224,-187500.0224,-187500.0224,-177250.8087,-187500.0224,-183241.5233,-187500.0224,-187500.0224,0.342,-0.074,0.924,192,0,0,0,0,0,0,0,0,0,0
 2023-06-27 18:18:10.137,-187500.0224,-187500.0224,-187500.0224,-177089.8985,-187500.0224,-182958.2596,-187500.0224,-187500.0224,0.342,-0.074,0.924,192,0,0,0,0,0,0,0,0,0,0
 2023-06-27 18:18:10.137,-187500.0224,-187500.0224,-187500.0224,-177752.6278,-187500.0224,-184181.5036,-187500.0224,-187500.0224,0.342,-0.074,0.924,192,0,0,0,0,0,0,0,0,0,0
 2023-06-27 18:18:10.137,-187500.0224,-187500.0224,-187500.0224,-178300.5361,-187500.0224,-185173.3846,-187500.0224,-187500.0224,0.342,-0.074,0.924,192,0,0,0,0,0,0,0,0,0,0
 2023-06-27 18:18:10.137,-187500.0224,-187500.0224,-187500.0224,-178033.008,-187500.0224,-184672.7278,-187500.0224,-187500.0224,0.342,-0.074,0.924,192,0,0,0,0,0,0,0,0,0,0
 2023-06-27 18:18:10.137,-187500.0224,-187500.0224,-187500.0224,-177255.1226,-187500.0224,-183255.0014,-187500.0224,-187500.0224,0.342,-0.074,0.924,192,0,0,0,0,0,0,0,0,0,0
 2023-06-27 18:18:10.137,-187500.0224,-187500.0224,-187500.0224,-177084.02,-187500.0224,-182951.8223,-187500.0224,-187500.0224,0.342,-0.074,0.924,192,0,0,0,0,0,0,0,0,0,0
 2023-06-27 18:18:10.137,-187500.0224,-187500.0224,-187500.0224,-177742.793,-187500.0224,-184161.834,-187500.0224,-187500.0224,0.342,-0.074,0.924,192,0,0,0,0,0,0,0,0,0,0
 2023-06-27 18:18:10.137,-187500.0224,-187500.0224,-187500.0224,-178299.5749,-187500.0224,-185170.5906,-187500.0224,-187500.0224,0.34,-0.074,0.922,192,10,160,253,176,28,208,0,0,0,0
 2023-06-27 18:18:10.137,-187500.0224,-187500.0224,-187500.0224,-178038.8866,-187500.0224,-184685.9154,-187500.0224,-187500.0224,0.34,-0.074,0.922,192,0,0,0,0,0,0,0,0,0,0
 2023-06-27 18:18:10.137,-187500.0224,-187500.0224,-187500.0224,-177261.5599,-187500.0224,-183269.1724,-187500.0224,-187500.0224,0.34,-0.074,0.922,192,0,0,0,0,0,0,0,0,0,0
 2023-06-27 18:18:10.137,-187500.0224,-187500.0224,-187500.0224,-177083.64,-187500.0224,-182951.5094,-187500.0224,-187500.0224,0.34,-0.074,0.922,192,0,0,0,0,0,0,0,0,0,0
 2023-06-27 18:18:10.138,-187500.0224,-187500.0224,-187500.0224,-177734.1429,-187500.0224,-184147.3724,-187500.0224,-187500.0224,0.34,-0.074,0.922,192,0,0,0,0,0,0,0,0,0,0
 2023-06-27 18:18:10.138,-187500.0224,-187500.0224,-187500.0224,-178297.7868,-187500.0224,-185168.6013,-187500.0224,-187500.0224,0.34,-0.074,0.922,192,0,0,0,0,0,0,0,0,0,0
 2023-06-27 18:18:10.138,-187500.0224,-187500.0224,-187500.0224,-178048.2743,-187500.0224,-184702.478,-187500.0224,-187500.0224,0.34,-0.074,0.922,192,0,0,0,0,0,0,0,0,0,0
 2023-06-27 18:18:10.138,-187500.0224,-187500.0224,-187500.0224,-177271.73,-187500.0224,-183287.1879,-187500.0224,-187500.0224,0.34,-0.074,0.922,192,0,0,0,0,0,0,0,0,0,0
 2023-06-27 18:18:10.138,-187500.0224,-187500.0224,-187500.0224,-177084.7576,-187500.0224,-182954.5269,-187500.0224,-187500.0224,0.34,-0.074,0.922,192,0,0,0,0,0,0,0,0,0,0
 2023-06-27 18:18:10.138,-187500.0224,-187500.0224,-187500.0224,-177729.896,-187500.0224,-184140.4658,-187500.0224,-187500.0224,0.34,-0.074,0.922,192,0,0,0,0,0,0,0,0,0,0
 2023-06-27 18:18:10.138,-187500.0224,-187500.0224,-187500.0224,-178299.4632,-187500.0224,-185172.1105,-187500.0224,-187500.0224,0.34,-0.07,0.92,192,10,160,253,208,28,192,0,0,0,0
 2023-06-27 18:18:10.138,-187500.0224,-187500.0224,-187500.0224,-178059.8078,-187500.0224,-184723.6004,-187500.0224,-187500.0224,0.34,-0.07,0.92,192,0,0,0,0,0,0,0,0,0,0
 2023-06-27 18:18:10.138,-187500.0224,-187500.0224,-187500.0224,-177284.5375,-187500.0224,-183309.1373,-187500.0224,-187500.0224,0.34,-0.07,0.92,192,0,0,0,0,0,0,0,0,0,0
 2023-06-27 18:18:10.138,-187500.0224,-187500.0224,-187500.0224,-177086.9258,-187500.0224,-182957.4773,-187500.0224,-187500.0224,0.34,-0.07,0.92,192,0,0,0,0,0,0,0,0,0,0
 2023-06-27 18:18:10.138,-187500.0224,-187500.0224,-187500.0224,-177721.2906,-187500.0224,-184124.9983,-187500.0224,-187500.0224,0.34,-0.07,0.92,192,0,0,0,0,0,0,0,0,0,0
 2023-06-27 18:18:10.138,-187500.0224,-187500.0224,-187500.0224,-178297.5409,-187500.0224,-185169.3389,-187500.0224,-187500.0224,0.34,-0.07,0.92,192,0,0,0,0,0,0,0,0,0,0
 2023-06-27 18:18:10.138,-187500.0224,-187500.0224,-187500.0224,-178066.5133,-187500.0224,-184736.4974,-187500.0224,-187500.0224,0.34,-0.07,0.92,192,0,0,0,0,0,0,0,0,0,0
 2023-06-27 18:18:10.138,-187500.0224,-187500.0224,-187500.0224,-177290.1031,-187500.0224,-183320.7602,-187500.0224,-187500.0224,0.34,-0.07,0.92,192,0,0,0,0,0,0,0,0,0,0
 2023-06-27 18:18:10.138,-187500.0224,-187500.0224,-187500.0224,-177082.2319,-187500.0224,-182951.0847,-187500.0224,-187500.0224,0.34,-0.07,0.92,192,0,0,0,0,0,0,0,0,0,0
 2023-06-27 18:18:10.138,-187500.0224,-187500.0224,-187500.0224,-177711.7464,-187500.0224,-184106.8711,-187500.0224,-187500.0224,0.34,-0.07,0.92,192,0,0,0,0,0,0,0,0,0,0
 2023-06-27 18:18:10.138,-187500.0224,-187500.0224,-187500.0224,-178296.781,-187500.0224,-185166.9026,-187500.0224,-187500.0224,0.336,-0.068,0.912,192,10,128,253,224,28,128,0,0,0,0
 2023-06-27 18:18:10.138,-187500.0224,-187500.0224,-187500.0224,-178074.2247,-187500.0224,-184751.026,-187500.0224,-187500.0224,0.336,-0.068,0.912,192,0,0,0,0,0,0,0,0,0,0
 2023-06-27 18:18:10.138,-187500.0224,-187500.0224,-187500.0224,-177297.8815,-187500.0224,-183334.7301,-187500.0224,-187500.0224,0.336,-0.068,0.912,192,0,0,0,0,0,0,0,0,0,0
 2023-06-27 18:18:10.138,-187500.0224,-187500.0224,-187500.0224,-177083.8412,-187500.0224,-182952.3364,-187500.0224,-187500.0224,0.336,-0.068,0.912,192,0,0,0,0,0,0,0,0,0,0
 2023-06-27 18:18:10.138,-187500.0224,-187500.0224,-187500.0224,-177707.7008,-187500.0224,-184098.3327,-187500.0224,-187500.0224,0.336,-0.068,0.912,192,0,0,0,0,0,0,0,0,0,0
 2023-06-27 18:18:10.138,-187500.0224,-187500.0224,-187500.0224,-178297.2951,-187500.0224,-185167.5284,-187500.0224,-187500.0224,0.336,-0.068,0.912,192,0,0,0,0,0,0,0,0,0,0
 2023-06-27 18:18:10.138,-187500.0224,-187500.0224,-187500.0224,-178083.2771,-187500.0224,-184767.1863,-187500.0224,-187500.0224,0.336,-0.068,0.912,192,0,0,0,0,0,0,0,0,0,0
 2023-06-27 18:18:10.138,-187500.0224,-187500.0224,-187500.0224,-177304.5647,-187500.0224,-183348.1411,-187500.0224,-187500.0224,0.336,-0.068,0.912,192,0,0,0,0,0,0,0,0,0,0
 2023-06-27 18:18:10.138,-187500.0224,-187500.0224,-187500.0224,-177078.4097,-187500.0224,-182945.8321,-187500.0224,-187500.0224,0.336,-0.068,0.912,192,0,0,0,0,0,0,0,0,0,0
 2023-06-27 18:18:10.138,-187500.0224,-187500.0224,-187500.0224,-177692.3898,-187500.0224,-184074.7516,-187500.0224,-187500.0224,0.336,-0.068,0.912,192,0,0,0,0,0,0,0,0,0,0
 2023-06-27 18:18:10.138,-187500.0224,-187500.0224,-187500.0224,-178291.3942,-187500.0224,-185160.0629,-187500.0224,-187500.0224,0.344,-0.064,0.92,192,10,192,254,0,28,192,0,0,0,0
 2023-06-27 18:18:10.138,-187500.0224,-187500.0224,-187500.0224,-178087.9039,-187500.0224,-184777.6246,-187500.0224,-187500.0224,0.344,-0.064,0.92,192,0,0,0,0,0,0,0,0,0,0
 2023-06-27 18:18:10.138,-187500.0224,-187500.0224,-187500.0224,-177310.555,-187500.0224,-183360.4793,-187500.0224,-187500.0224,0.344,-0.064,0.92,192,0,0,0,0,0,0,0,0,0,0
 2023-06-27 18:18:10.138,-187500.0224,-187500.0224,-187500.0224,-177080.2202,-187500.0224,-182949.453,-187500.0224,-187500.0224,0.344,-0.064,0.92,192,0,0,0,0,0,0,0,0,0,0
 2023-06-27 18:18:10.138,-187500.0224,-187500.0224,-187500.0224,-177694.1109,-187500.0224,-184077.7691,-187500.0224,-187500.0224,0.344,-0.064,0.92,192,0,0,0,0,0,0,0,0,0,0
 2023-06-27 18:18:10.138,-187500.0224,-187500.0224,-187500.0224,-178297.2057,-187500.0224,-185168.8695,-187500.0224,-187500.0224,0.344,-0.064,0.92,192,0,0,0,0,0,0,0,0,0,0
 2023-06-27 18:18:10.138,-187500.0224,-187500.0224,-187500.0224,-178099.2139,-187500.0224,-184798.367,-187500.0224,-187500.0224,0.344,-0.064,0.92,192,0,0,0,0,0,0,0,0,0,0
 2023-06-27 18:18:10.138,-187500.0224,-187500.0224,-187500.0224,-177319.2274,-187500.0224,-183377.8242,-187500.0224,-187500.0224,0.344,-0.064,0.92,192,0,0,0,0,0,0,0,0,0,0
 2023-06-27 18:18:10.138,-187500.0224,-187500.0224,-187500.0224,-177077.8957,-187500.0224,-182945.8544,-187500.0224,-187500.0224,0.344,-0.064,0.92,192,0,0,0,0,0,0,0,0,0,0
 2023-06-27 18:18:10.138,-187500.0224,-187500.0224,-187500.0224,-177679.5152,-187500.0224,-184050.0082,-187500.0224,-187500.0224,0.344,-0.064,0.92,192,0,0,0,0,0,0,0,0,0,0
 2023-06-27 18:18:10.138,-187500.0224,-187500.0224,-187500.0224,-178292.713,-187500.0224,-185160.8229,-187500.0224,-187500.0224,0.344,-0.068,0.924,192,10,192,253,224,28,224,0,0,0,0
 2023-06-27 18:18:10.138,-187500.0224,-187500.0224,-187500.0224,-178106.4559,-187500.0224,-184811.5545,-187500.0224,-187500.0224,0.344,-0.068,0.924,192,0,0,0,0,0,0,0,0,0,0
 2023-06-27 18:18:10.138,-187500.0224,-187500.0224,-187500.0224,-177328.034,-187500.0224,-183393.0234,-187500.0224,-187500.0224,0.344,-0.068,0.924,192,0,0,0,0,0,0,0,0,0,0
 2023-06-27 18:18:10.138,-187500.0224,-187500.0224,-187500.0224,-177077.918,-187500.0224,-182945.318,-187500.0224,-187500.0224,0.344,-0.068,0.924,192,0,0,0,0,0,0,0,0,0,0
 2023-06-27 18:18:10.138,-187500.0224,-187500.0224,-187500.0224,-177671.7591,-187500.0224,-184036.0161,-187500.0224,-187500.0224,0.344,-0.068,0.924,192,0,0,0,0,0,0,0,0,0,0
 2023-06-27 18:18:10.138,-187500.0224,-187500.0224,-187500.0224,-178290.6119,-187500.0224,-185157.7383,-187500.0224,-187500.0224,0.344,-0.068,0.924,192,0,0,0,0,0,0,0,0,0,0
 2023-06-27 18:18:10.138,-187500.0224,-187500.0224,-187500.0224,-178112.312,-187500.0224,-184823.0433,-187500.0224,-187500.0224,0.344,-0.068,0.924,192,0,0,0,0,0,0,0,0,0,0
 2023-06-27 18:18:10.138,-187500.0224,-187500.0224,-187500.0224,-177333.0408,-187500.0224,-183403.6628,-187500.0224,-187500.0224,0.344,-0.068,0.924,192,0,0,0,0,0,0,0,0,0,0
 2023-06-27 18:18:10.138,-187500.0224,-187500.0224,-187500.0224,-177074.0288,-187500.0224,-182941.0711,-187500.0224,-187500.0224,0.344,-0.068,0.924,192,0,0,0,0,0,0,0,0,0,0
 2023-06-27 18:18:10.138,-187500.0224,-187500.0224,-187500.0224,-177665.5454,-187500.0224,-184024.7508,-187500.0224,-187500.0224,0.344,-0.068,0.924,192,0,0,0,0,0,0,0,0,0,0
 2023-06-27 18:18:10.614,-187500.0224,-187500.0224,-187500.0224,-178287.5497,-187500.0224,-185153.8268,-187500.0224,-187500.0224,0.344,-0.064,0.918,192,10,192,254,0,28,176,0,0,0,0
 2023-06-27 18:18:10.614,-187500.0224,-187500.0224,-187500.0224,-178117.6094,-187500.0224,-184834.4874,-187500.0224,-187500.0224,0.344,-0.064,0.918,192,0,0,0,0,0,0,0,0,0,0
 2023-06-27 18:18:10.614,-187500.0224,-187500.0224,-187500.0224,-177339.7463,-187500.0224,-183415.4646,-187500.0224,-187500.0224,0.344,-0.064,0.918,192,0,0,0,0,0,0,0,0,0,0
 2023-06-27 18:18:10.614,-187500.0224,-187500.0224,-187500.0224,-177071.3242,-187500.0224,-182935.7514,-187500.0224,-187500.0224,0.344,-0.064,0.918,192,0,0,0,0,0,0,0,0,0,0
 2023-06-27 18:18:10.614,-187500.0224,-187500.0224,-187500.0224,-177651.7096,-187500.0224,-184002.1755,-187500.0224,-187500.0224,0.344,-0.064,0.918,192,0,0,0,0,0,0,0,0,0,0
 2023-06-27 18:18:10.614,-187500.0224,-187500.0224,-187500.0224,-178283.2135,-187500.0224,-185147.2107,-187500.0224,-187500.0224,0.344,-0.064,0.918,192,0,0,0,0,0,0,0,0,0,0
 2023-06-27 18:18:10.614,-187500.0224,-187500.0224,-187500.0224,-178124.5608,-187500.0224,-184846.915,-187500.0224,-187500.0224,0.344,-0.064,0.918,192,0,0,0,0,0,0,0,0,0,0
 2023-06-27 18:18:10.614,-187500.0224,-187500.0224,-187500.0224,-177345.8707,-187500.0224,-183427.378,-187500.0224,-187500.0224,0.344,-0.064,0.918,192,0,0,0,0,0,0,0,0,0,0
 2023-06-27 18:18:10.614,-187500.0224,-187500.0224,-187500.0224,-177069.0444,-187500.0224,-182932.8457,-187500.0224,-187500.0224,0.344,-0.064,0.918,192,0,0,0,0,0,0,0,0,0,0
 2023-06-27 18:18:10.614,-187500.0224,-187500.0224,-187500.0224,-177643.1936,-187500.0224,-183987.9151,-187500.0224,-187500.0224,0.344,-0.064,0.918,192,0,0,0,0,0,0,0,0,0,0
 2023-06-27 18:18:10.614,-187500.0224,-187500.0224,-187500.0224,-178282.4312,-187500.0224,-185145.9143,-187500.0224,-187500.0224,0.344,-0.066,0.924,192,10,192,253,240,28,224,0,0,0,0
 2023-06-27 18:18:10.614,-187500.0224,-187500.0224,-187500.0224,-178132.451,-187500.0224,-184861.0636,-187500.0224,-187500.0224,0.344,-0.066,0.924,192,0,0,0,0,0,0,0,0,0,0
 2023-06-27 18:18:10.614,-187500.0224,-187500.0224,-187500.0224,-177353.3585,-187500.0224,-183440.2974,-187500.0224,-187500.0224,0.344,-0.066,0.924,192,0,0,0,0,0,0,0,0,0,0
 2023-06-27 18:18:10.614,-187500.0224,-187500.0224,-187500.0224,-177064.9093,-187500.0224,-182926.6319,-187500.0224,-187500.0224,0.344,-0.066,0.924,192,0,0,0,0,0,0,0,0,0,0
 2023-06-27 18:18:10.614,-187500.0224,-187500.0224,-187500.0224,-177634.1635,-187500.0224,-183973.2524,-187500.0224,-187500.0224,0.344,-0.066,0.924,192,0,0,0,0,0,0,0,0,0,0
 2023-06-27 18:18:10.614,-187500.0224,-187500.0224,-187500.0224,-178280.1736,-187500.0224,-185144.4391,-187500.0224,-187500.0224,0.344,-0.066,0.924,192,0,0,0,0,0,0,0,0,0,0
 2023-06-27 18:18:10.614,-187500.0224,-187500.0224,-187500.0224,-178138.5753,-187500.0224,-184874.9664,-187500.0224,-187500.0224,0.344,-0.066,0.924,192,0,0,0,0,0,0,0,0,0,0
 2023-06-27 18:18:10.614,-187500.0224,-187500.0224,-187500.0224,-177360.7123,-187500.0224,-183456.5024,-187500.0224,-187500.0224,0.344,-0.066,0.924,192,0,0,0,0,0,0,0,0,0,0
 2023-06-27 18:18:10.614,-187500.0224,-187500.0224,-187500.0224,-177066.9209,-187500.0224,-182932.3093,-187500.0224,-187500.0224,0.344,-0.066,0.924,192,0,0,0,0,0,0,0,0,0,0
 2023-06-27 18:18:10.614,-187500.0224,-187500.0224,-187500.0224,-177632.2413,-187500.0224,-183971.0395,-187500.0224,-187500.0224,0.344,-0.066,0.924,192,0,0,0,0,0,0,0,0,0,0
 2023-06-27 18:18:10.614,-187500.0224,-187500.0224,-187500.0224,-178283.4817,-187500.0224,-185151.4352,-187500.0224,-187500.0224,0.348,-0.064,0.928,192,10,224,254,0,29,0,0,0,0,0
 2023-06-27 18:18:10.614,-187500.0224,-187500.0224,-187500.0224,-178149.7065,-187500.0224,-184895.3736,-187500.0224,-187500.0224,0.348,-0.064,0.928,192,0,0,0,0,0,0,0,0,0,0
 2023-06-27 18:18:10.614,-187500.0224,-187500.0224,-187500.0224,-177373.4528,-187500.0224,-183477.1107,-187500.0224,-187500.0224,0.348,-0.064,0.928,192,0,0,0,0,0,0,0,0,0,0
 2023-06-27 18:18:10.614,-187500.0224,-187500.0224,-187500.0224,-177072.8218,-187500.0224,-182940.0653,-187500.0224,-187500.0224,0.348,-0.064,0.928,192,0,0,0,0,0,0,0,0,0,0
 2023-06-27 18:18:10.614,-187500.0224,-187500.0224,-187500.0224,-177634.9235,-187500.0224,-183973.23,-187500.0224,-187500.0224,0.348,-0.064,0.928,192,0,0,0,0,0,0,0,0,0,0
 2023-06-27 18:18:10.614,-187500.0224,-187500.0224,-187500.0224,-178288.7344,-187500.0224,-185159.5265,-187500.0224,-187500.0224,0.348,-0.064,0.928,192,0,0,0,0,0,0,0,0,0,0
 2023-06-27 18:18:10.614,-187500.0224,-187500.0224,-187500.0224,-178159.2954,-187500.0224,-184912.7409,-187500.0224,-187500.0224,0.348,-0.064,0.928,192,0,0,0,0,0,0,0,0,0,0
 2023-06-27 18:18:10.614,-187500.0224,-187500.0224,-187500.0224,-177379.443,-187500.0224,-183490.7005,-187500.0224,-187500.0224,0.348,-0.064,0.928,192,0,0,0,0,0,0,0,0,0,0
 2023-06-27 18:18:10.614,-187500.0224,-187500.0224,-187500.0224,-177068.8879,-187500.0224,-182936.2655,-187500.0224,-187500.0224,0.348,-0.064,0.928,192,0,0,0,0,0,0,0,0,0,0
 2023-06-27 18:18:10.614,-187500.0224,-187500.0224,-187500.0224,-177621.356,-187500.0224,-183953.9628,-187500.0224,-187500.0224,0.348,-0.064,0.928,192,0,0,0,0,0,0,0,0,0,0
 2023-06-27 18:18:10.614,-187500.0224,-187500.0224,-187500.0224,-178281.6041,-187500.0224,-185151.2563,-187500.0224,-187500.0224,0.346,-0.066,0.928,192,10,208,253,240,29,0,0,0,0,0
 2023-06-27 18:18:10.614,-187500.0224,-187500.0224,-187500.0224,-178161.6423,-187500.0224,-184920.9216,-187500.0224,-187500.0224,0.346,-0.066,0.928,192,0,0,0,0,0,0,0,0,0,0
 2023-06-27 18:18:10.614,-187500.0224,-187500.0224,-187500.0224,-177386.8415,-187500.0224,-183504.3128,-187500.0224,-187500.0224,0.346,-0.066,0.928,192,0,0,0,0,0,0,0,0,0,0
 2023-06-27 18:18:10.614,-187500.0224,-187500.0224,-187500.0224,-177070.0949,-187500.0224,-182936.869,-187500.0224,-187500.0224,0.346,-0.066,0.928,192,0,0,0,0,0,0,0,0,0,0
 2023-06-27 18:18:10.614,-187500.0224,-187500.0224,-187500.0224,-177619.4114,-187500.0224,-183948.6654,-187500.0224,-187500.0224,0.346,-0.066,0.928,192,0,0,0,0,0,0,0,0,0,0
 2023-06-27 18:18:10.614,-187500.0224,-187500.0224,-187500.0224,-178283.3029,-187500.0224,-185152.9998,-187500.0224,-187500.0224,0.346,-0.066,0.928,192,0,0,0,0,0,0,0,0,0,0
 2023-06-27 18:18:10.614,-187500.0224,-187500.0224,-187500.0224,-178172.1029,-187500.0224,-184937.5737,-187500.0224,-187500.0224,0.346,-0.066,0.928,192,0,0,0,0,0,0,0,0,0,0
 2023-06-27 18:18:10.614,-187500.0224,-187500.0224,-187500.0224,-177396.6315,-187500.0224,-183520.6519,-187500.0224,-187500.0224,0.346,-0.066,0.928,192,0,0,0,0,0,0,0,0,0,0
 2023-06-27 18:18:10.614,-187500.0224,-187500.0224,-187500.0224,-177069.3126,-187500.0224,-182936.2208,-187500.0224,-187500.0224,0.346,-0.066,0.928,192,0,0,0,0,0,0,0,0,0,0
 2023-06-27 18:18:10.614,-187500.0224,-187500.0224,-187500.0224,-177612.5047,-187500.0224,-183936.8861,-187500.0224,-187500.0224,0.346,-0.066,0.928,192,0,0,0,0,0,0,0,0,0,0
 2023-06-27 18:18:10.614,-187500.0224,-187500.0224,-187500.0224,-178285.3145,-187500.0224,-185154.922,-187500.0224,-187500.0224,0.346,-0.062,0.92,192,10,208,254,16,28,192,0,0,0,0
 2023-06-27 18:18:10.614,-187500.0224,-187500.0224,-187500.0224,-178180.3731,-187500.0224,-184952.7281,-187500.0224,-187500.0224,0.346,-0.062,0.92,192,0,0,0,0,0,0,0,0,0,0
 2023-06-27 18:18:10.614,-187500.0224,-187500.0224,-187500.0224,-177406.2651,-187500.0224,-183537.751,-187500.0224,-187500.0224,0.346,-0.062,0.92,192,0,0,0,0,0,0,0,0,0,0
 2023-06-27 18:18:10.614,-187500.0224,-187500.0224,-187500.0224,-177070.9443,-187500.0224,-182937.4278,-187500.0224,-187500.0224,0.346,-0.062,0.92,192,0,0,0,0,0,0,0,0,0,0
 2023-06-27 18:18:10.615,-187500.0224,-187500.0224,-187500.0224,-177605.4192,-187500.0224,-183922.3798,-187500.0224,-187500.0224,0.346,-0.062,0.92,192,0,0,0,0,0,0,0,0,0,0
 2023-06-27 18:18:10.615,-187500.0224,-187500.0224,-187500.0224,-178281.0677,-187500.0224,-185149.2223,-187500.0224,-187500.0224,0.346,-0.062,0.92,192,0,0,0,0,0,0,0,0,0,0
 2023-06-27 18:18:10.615,-187500.0224,-187500.0224,-187500.0224,-178186.3634,-187500.0224,-184964.6193,-187500.0224,-187500.0224,0.346,-0.062,0.92,192,0,0,0,0,0,0,0,0,0,0
 2023-06-27 18:18:10.615,-187500.0224,-187500.0224,-187500.0224,-177412.3225,-187500.0224,-183551.3855,-187500.0224,-187500.0224,0.346,-0.062,0.92,192,0,0,0,0,0,0,0,0,0,0
 2023-06-27 18:18:10.615,-187500.0224,-187500.0224,-187500.0224,-177069.6479,-187500.0224,-182938.4113,-187500.0224,-187500.0224,0.346,-0.062,0.92,192,0,0,0,0,0,0,0,0,0,0
 2023-06-27 18:18:10.615,-187500.0224,-187500.0224,-187500.0224,-177601.6194,-187500.0224,-183916.3672,-187500.0224,-187500.0224,0.346,-0.062,0.92,192,0,0,0,0,0,0,0,0,0,0
 2023-06-27 18:18:10.615,-187500.0224,-187500.0224,-187500.0224,-178284.0852,-187500.0224,-185153.715,-187500.0224,-187500.0224,0.344,-0.064,0.92,192,10,192,254,0,28,192,0,0,0,0
 2023-06-27 18:18:10.615,-187500.0224,-187500.0224,-187500.0224,-178197.4722,-187500.0224,-184983.6183,-187500.0224,-187500.0224,0.344,-0.064,0.92,192,0,0,0,0,0,0,0,0,0,0
 2023-06-27 18:18:10.615,-187500.0224,-187500.0224,-187500.0224,-177426.4488,-187500.0224,-183575.436,-187500.0224,-187500.0224,0.344,-0.064,0.92,192,0,0,0,0,0,0,0,0,0,0
 2023-06-27 18:18:10.615,-187500.0224,-187500.0224,-187500.0224,-177076.331,-187500.0224,-182949.9224,-187500.0224,-187500.0224,0.344,-0.064,0.92,192,0,0,0,0,0,0,0,0,0,0
 2023-06-27 18:18:10.615,-187500.0224,-187500.0224,-187500.0224,-177601.7311,-187500.0224,-183917.0154,-187500.0224,-187500.0224,0.344,-0.064,0.92,192,0,0,0,0,0,0,0,0,0,0
 2023-06-27 18:18:10.615,-187500.0224,-187500.0224,-187500.0224,-178289.0249,-187500.0224,-185162.3205,-187500.0224,-187500.0224,0.344,-0.064,0.92,192,0,0,0,0,0,0,0,0,0,0
 2023-06-27 18:18:10.615,-187500.0224,-187500.0224,-187500.0224,-178208.4916,-187500.0224,-185004.316,-187500.0224,-187500.0224,0.344,-0.064,0.92,192,0,0,0,0,0,0,0,0,0,0
 2023-06-27 18:18:10.615,-187500.0224,-187500.0224,-187500.0224,-177438.0046,-187500.0224,-183597.743,-187500.0224,-187500.0224,0.344,-0.064,0.92,192,0,0,0,0,0,0,0,0,0,0
 2023-06-27 18:18:10.615,-187500.0224,-187500.0224,-187500.0224,-177082.2766,-187500.0224,-182959.3549,-187500.0224,-187500.0224,0.344,-0.064,0.92,192,0,0,0,0,0,0,0,0,0,0
 2023-06-27 18:18:10.615,-187500.0224,-187500.0224,-187500.0224,-177597.3278,-187500.0224,-183909.3934,-187500.0224,-187500.0224,0.344,-0.064,0.92,192,0,0,0,0,0,0,0,0,0,0
 2023-06-27 18:18:10.615,-187500.0224,-187500.0224,-187500.0224,-178287.2144,-187500.0224,-185161.2029,-187500.0224,-187500.0224,0.342,-0.066,0.918,192,10,176,253,240,28,176,0,0,0,0
 2023-06-27 18:18:10.615,-187500.0224,-187500.0224,-187500.0224,-178216.1135,-187500.0224,-185019.381,-187500.0224,-187500.0224,0.342,-0.066,0.918,192,0,0,0,0,0,0,0,0,0,0
 2023-06-27 18:18:10.615,-187500.0224,-187500.0224,-187500.0224,-177449.1805,-187500.0224,-183617.9937,-187500.0224,-187500.0224,0.342,-0.066,0.918,192,0,0,0,0,0,0,0,0,0,0
 2023-06-27 18:18:10.615,-187500.0224,-187500.0224,-187500.0224,-177081.986,-187500.0224,-182960.4725,-187500.0224,-187500.0224,0.342,-0.066,0.918,192,0,0,0,0,0,0,0,0,0,0
 2023-06-27 18:18:10.615,-187500.0224,-187500.0224,-187500.0224,-177589.5494,-187500.0224,-183894.8201,-187500.0224,-187500.0224,0.342,-0.066,0.918,192,0,0,0,0,0,0,0,0,0,0
 2023-06-27 18:18:10.615,-187500.0224,-187500.0224,-187500.0224,-178283.4817,-187500.0224,-185155.0114,-187500.0224,-187500.0224,0.342,-0.066,0.918,192,0,0,0,0,0,0,0,0,0,0
 2023-06-27 18:18:10.615,-187500.0224,-187500.0224,-187500.0224,-178219.0193,-187500.0224,-185026.2654,-187500.0224,-187500.0224,0.342,-0.066,0.918,192,0,0,0,0,0,0,0,0,0,0
 2023-06-27 18:18:10.615,-187500.0224,-187500.0224,-187500.0224,-177452.8685,-187500.0224,-183628.2085,-187500.0224,-187500.0224,0.342,-0.066,0.918,192,0,0,0,0,0,0,0,0,0,0
 2023-06-27 18:18:10.615,-187500.0224,-187500.0224,-187500.0224,-177077.6945,-187500.0224,-182957.075,-187500.0224,-187500.0224,0.342,-0.066,0.918,192,0,0,0,0,0,0,0,0,0,0
 2023-06-27 18:18:10.615,-187500.0224,-187500.0224,-187500.0224,-177579.0665,-187500.0224,-183878.6151,-187500.0224,-187500.0224,0.342,-0.066,0.918,192,0,0,0,0,0,0,0,0,0,0
 2023-06-27 18:18:10.615,-187500.0224,-187500.0224,-187500.0224,-178277.6255,-187500.0224,-185146.2943,-187500.0224,-187500.0224,0.346,-0.068,0.924,192,10,208,253,224,28,224,0,0,0,0
 2023-06-27 18:18:10.615,-187500.0224,-187500.0224,-187500.0224,-178220.9415,-187500.0224,-185032.1215,-187500.0224,-187500.0224,0.346,-0.068,0.924,192,0,0,0,0,0,0,0,0,0,0
 2023-06-27 18:18:10.615,-187500.0224,-187500.0224,-187500.0224,-177460.5799,-187500.0224,-183643.2065,-187500.0224,-187500.0224,0.346,-0.068,0.924,192,0,0,0,0,0,0,0,0,0,0
