 Timestamp (Formatted), EXG Channel 0, EXG Channel 1, EXG Channel 2, EXG Channel 3, EXG Channel 4, EXG Channel 5, EXG Channel 6, EXG Channel 7, Accel Channel 0, Accel Channel 1, Accel Channel 2, Other, Other.1, Other.2, Other.3, Other.4, Other.5, Other.6, Analog Channel 0, Analog Channel 1, Analog Channel 2, Other.7
 2023-06-27 18:17:14.623,-187500.0224,-187500.0224,-187500.0224,-178864.18,-187500.0224,-185276.9178,-187500.0224,-187500.0224,0.342,-0.062,0.922,192,0,0,0,0,0,0,0,0,0,0
 2023-06-27 18:17:14.623,-187500.0224,-187500.0224,-187500.0224,-178222.7967,-187500.0224,-184118.2258,-187500.0224,-187500.0224,0.342,-0.062,0.922,192,0,0,0,0,0,0,0,0,0,0
 2023-06-27 18:17:14.623,-187500.0224,-187500.0224,-187500.0224,-178343.8761,-187500.0224,-184340.7821,-187500.0224,-187500.0224,0.342,-0.062,0.922,192,0,0,0,0,0,0,0,0,0,0
 2023-06-27 18:17:14.623,-187500.0224,-187500.0224,-187500.0224,-179087.4069,-187500.0224,-185695.4766,-187500.0224,-187500.0224,0.342,-0.062,0.922,192,0,0,0,0,0,0,0,0,0,0
 2023-06-27 18:17:14.623,-187500.0224,-187500.0224,-187500.0224,-179375.3644,-187500.0224,-186213.2995,-187500.0224,-187500.0224,0.342,-0.062,0.922,192,0,0,0,0,0,0,0,0,0,0
 2023-06-27 18:17:14.623,-187500.0224,-187500.0224,-187500.0224,-178866.0576,-187500.0224,-185281.6788,-187500.0224,-187500.0224,0.342,-0.062,0.922,192,0,0,0,0,0,0,0,0,0,0
 2023-06-27 18:17:14.623,-187500.0224,-187500.0224,-187500.0224,-178221.4556,-187500.0224,-184116.84,-187500.0224,-187500.0224,0.342,-0.062,0.922,192,0,0,0,0,0,0,0,0,0,0
 2023-06-27 18:17:14.623,-187500.0224,-187500.0224,-187500.0224,-178340.4563,-187500.0224,-184334.0766,-187500.0224,-187500.0224,0.34,-0.066,0.924,192,10,160,253,240,28,224,0,0,0,0
 2023-06-27 18:17:14.623,-187500.0224,-187500.0224,-187500.0224,-179084.9258,-187500.0224,-185689.8887,-187500.0224,-187500.0224,0.34,-0.066,0.924,192,0,0,0,0,0,0,0,0,0,0
 2023-06-27 18:17:14.623,-187500.0224,-187500.0224,-187500.0224,-179375.9679,-187500.0224,-186213.6571,-187500.0224,-187500.0224,0.34,-0.066,0.924,192,0,0,0,0,0,0,0,0,0,0
 2023-06-27 18:17:14.623,-187500.0224,-187500.0224,-187500.0224,-178869.2092,-187500.0224,-185286.5962,-187500.0224,-187500.0224,0.34,-0.066,0.924,192,0,0,0,0,0,0,0,0,0,0
 2023-06-27 18:17:14.623,-187500.0224,-187500.0224,-187500.0224,-178221.6121,-187500.0224,-184116.9517,-187500.0224,-187500.0224,0.34,-0.066,0.924,192,0,0,0,0,0,0,0,0,0,0
 2023-06-27 18:17:14.623,-187500.0224,-187500.0224,-187500.0224,-178333.2814,-187500.0224,-184326.7228,-187500.0224,-187500.0224,0.34,-0.066,0.924,192,0,0,0,0,0,0,0,0,0,0
 2023-06-27 18:17:14.623,-187500.0224,-187500.0224,-187500.0224,-179079.2261,-187500.0224,-185685.6642,-187500.0224,-187500.0224,0.34,-0.066,0.924,192,0,0,0,0,0,0,0,0,0,0
 2023-06-27 18:17:14.623,-187500.0224,-187500.0224,-187500.0224,-179372.7046,-187500.0224,-186212.2042,-187500.0224,-187500.0224,0.34,-0.066,0.924,192,0,0,0,0,0,0,0,0,0,0
 2023-06-27 18:17:14.623,-187500.0224,-187500.0224,-187500.0224,-178868.9633,-187500.0224,-185290.1724,-187500.0224,-187500.0224,0.34,-0.066,0.924,192,0,0,0,0,0,0,0,0,0,0
 2023-06-27 18:17:14.623,-187500.0224,-187500.0224,-187500.0224,-178217.5887,-187500.0224,-184114.046,-187500.0224,-187500.0224,0.34,-0.066,0.924,192,0,0,0,0,0,0,0,0,0,0
 2023-06-27 18:17:14.623,-187500.0224,-187500.0224,-187500.0224,-178325.8606,-187500.0224,-184314.4294,-187500.0224,-187500.0224,0.34,-0.066,0.922,192,10,160,253,240,28,208,0,0,0,0
 2023-06-27 18:17:14.623,-187500.0224,-187500.0224,-187500.0224,-179069.5255,-187500.0224,-185668.9227,-187500.0224,-187500.0224,0.34,-0.066,0.922,192,0,0,0,0,0,0,0,0,0,0
 2023-06-27 18:17:14.623,-187500.0224,-187500.0224,-187500.0224,-179370.447,-187500.0224,-186208.9856,-187500.0224,-187500.0224,0.34,-0.066,0.922,192,0,0,0,0,0,0,0,0,0,0
 2023-06-27 18:17:14.623,-187500.0224,-187500.0224,-187500.0224,-178870.5279,-187500.0224,-185293.4805,-187500.0224,-187500.0224,0.34,-0.066,0.922,192,0,0,0,0,0,0,0,0,0,0
 2023-06-27 18:17:14.623,-187500.0224,-187500.0224,-187500.0224,-178219.1087,-187500.0224,-184115.3424,-187500.0224,-187500.0224,0.34,-0.066,0.922,192,0,0,0,0,0,0,0,0,0,0
 2023-06-27 18:17:14.623,-187500.0224,-187500.0224,-187500.0224,-178325.883,-187500.0224,-184311.4789,-187500.0224,-187500.0224,0.34,-0.066,0.922,192,0,0,0,0,0,0,0,0,0,0
 2023-06-27 18:17:14.623,-187500.0224,-187500.0224,-187500.0224,-179068.9667,-187500.0224,-185665.95,-187500.0224,-187500.0224,0.34,-0.066,0.922,192,0,0,0,0,0,0,0,0,0,0
 2023-06-27 18:17:14.623,-187500.0224,-187500.0224,-187500.0224,-179374.448,-187500.0224,-186213.4783,-187500.0224,-187500.0224,0.34,-0.066,0.922,192,0,0,0,0,0,0,0,0,0,0
 2023-06-27 18:17:14.623,-187500.0224,-187500.0224,-187500.0224,-178876.3394,-187500.0224,-185301.7506,-187500.0224,-187500.0224,0.34,-0.066,0.922,192,0,0,0,0,0,0,0,0,0,0
 2023-06-27 18:17:14.623,-187500.0224,-187500.0224,-187500.0224,-178221.3885,-187500.0224,-184118.4269,-187500.0224,-187500.0224,0.34,-0.066,0.922,192,0,0,0,0,0,0,0,0,0,0
 2023-06-27 18:17:14.623,-187500.0224,-187500.0224,-187500.0224,-178324.6536,-187500.0224,-184308.7967,-187500.0224,-187500.0224,0.338,-0.07,0.928,192,10,144,253,208,29,0,0,0,0,0
 2023-06-27 18:17:14.623,-187500.0224,-187500.0224,-187500.0224,-179065.9269,-187500.0224,-185661.569,-187500.0224,-187500.0224,0.338,-0.07,0.928,192,0,0,0,0,0,0,0,0,0,0
 2023-06-27 18:17:14.623,-187500.0224,-187500.0224,-187500.0224,-179374.0233,-187500.0224,-186214.6629,-187500.0224,-187500.0224,0.338,-0.07,0.928,192,0,0,0,0,0,0,0,0,0,0
 2023-06-27 18:17:14.623,-187500.0224,-187500.0224,-187500.0224,-178880.4744,-187500.0224,-185309.0597,-187500.0224,-187500.0224,0.338,-0.07,0.928,192,0,0,0,0,0,0,0,0,0,0
 2023-06-27 18:17:14.623,-187500.0224,-187500.0224,-187500.0224,-178224.406,-187500.0224,-184122.2044,-187500.0224,-187500.0224,0.338,-0.07,0.928,192,0,0,0,0,0,0,0,0,0,0
 2023-06-27 18:17:14.623,-187500.0224,-187500.0224,-187500.0224,-178322.4408,-187500.0224,-184303.6335,-187500.0224,-187500.0224,0.338,-0.07,0.928,192,0,0,0,0,0,0,0,0,0,0
 2023-06-27 18:17:14.623,-187500.0224,-187500.0224,-187500.0224,-179063.1105,-187500.0224,-185654.9306,-187500.0224,-187500.0224,0.338,-0.07,0.928,192,0,0,0,0,0,0,0,0,0,0
 2023-06-27 18:17:14.623,-187500.0224,-187500.0224,-187500.0224,-179374.895,-187500.0224,-186215.3782,-187500.0224,-187500.0224,0.338,-0.07,0.928,192,0,0,0,0,0,0,0,0,0,0
 2023-06-27 18:17:14.623,-187500.0224,-187500.0224,-187500.0224,-178881.145,-187500.0224,-185312.5912,-187500.0224,-187500.0224,0.338,-0.07,0.928,192,0,0,0,0,0,0,0,0,0,0
 2023-06-27 18:17:14.623,-187500.0224,-187500.0224,-187500.0224,-178219.9804,-187500.0224,-184117.9799,-187500.0224,-187500.0224,0.338,-0.07,0.928,192,0,0,0,0,0,0,0,0,0,0
 2023-06-27 18:17:14.623,-187500.0224,-187500.0224,-187500.0224,-178316.9199,-187500.0224,-184295.5869,-187500.0224,-187500.0224,0.338,-0.07,0.932,192,10,144,253,208,29,32,0,0,0,0
 2023-06-27 18:17:14.623,-187500.0224,-187500.0224,-187500.0224,-179060.0707,-187500.0224,-185649.9238,-187500.0224,-187500.0224,0.338,-0.07,0.932,192,0,0,0,0,0,0,0,0,0,0
 2023-06-27 18:17:14.623,-187500.0224,-187500.0224,-187500.0224,-179374.4033,-187500.0224,-186215.2217,-187500.0224,-187500.0224,0.338,-0.07,0.932,192,0,0,0,0,0,0,0,0,0,0
 2023-06-27 18:17:14.623,-187500.0224,-187500.0224,-187500.0224,-178886.4647,-187500.0224,-185320.5708,-187500.0224,-187500.0224,0.338,-0.07,0.932,192,0,0,0,0,0,0,0,0,0,0
 2023-06-27 18:17:14.623,-187500.0224,-187500.0224,-187500.0224,-178223.5567,-187500.0224,-184121.8468,-187500.0224,-187500.0224,0.338,-0.07,0.932,192,0,0,0,0,0,0,0,0,0,0
 2023-06-27 18:17:14.624,-187500.0224,-187500.0224,-187500.0224,-178313.4107,-187500.0224,-184288.3225,-187500.0224,-187500.0224,0.338,-0.07,0.932,192,0,0,0,0,0,0,0,0,0,0
 2023-06-27 18:17:14.624,-187500.0224,-187500.0224,-187500.0224,-179052.5829,-187500.0224,-185637.5632,-187500.0224,-187500.0224,0.338,-0.07,0.932,192,0,0,0,0,0,0,0,0,0,0
 2023-06-27 18:17:14.624,-187500.0224,-187500.0224,-187500.0224,-179371.3411,-187500.0224,-186211.1984,-187500.0224,-187500.0224,0.338,-0.07,0.932,192,0,0,0,0,0,0,0,0,0,0
 2023-06-27 18:17:14.624,-187500.0224,-187500.0224,-187500.0224,-178885.8836,-187500.0224,-185322.0013,-187500.0224,-187500.0224,0.338,-0.07,0.932,192,0,0,0,0,0,0,0,0,0,0
 2023-06-27 18:17:14.624,-187500.0224,-187500.0224,-187500.0224,-178219.4439,-187500.0224,-184117.5999,-187500.0224,-187500.0224,0.338,-0.07,0.932,192,0,0,0,0,0,0,0,0,0,0
 2023-06-27 18:17:14.624,-187500.0224,-187500.0224,-187500.0224,-178305.0288,-187500.0224,-184275.7832,-187500.0224,-187500.0224,0.342,-0.068,0.926,192,10,176,253,224,28,240,0,0,0,0
 2023-06-27 18:17:14.624,-187500.0224,-187500.0224,-187500.0224,-179046.235,-187500.0224,-185626.4321,-187500.0224,-187500.0224,0.342,-0.068,0.926,192,0,0,0,0,0,0,0,0,0,0
 2023-06-27 18:17:14.624,-187500.0224,-187500.0224,-187500.0224,-179371.207,-187500.0224,-186210.6396,-187500.0224,-187500.0224,0.342,-0.068,0.926,192,0,0,0,0,0,0,0,0,0,0
 2023-06-27 18:17:14.624,-187500.0224,-187500.0224,-187500.0224,-178889.4375,-187500.0224,-185327.3657,-187500.0224,-187500.0224,0.342,-0.068,0.926,192,0,0,0,0,0,0,0,0,0,0
 2023-06-27 18:17:14.624,-187500.0224,-187500.0224,-187500.0224,-178220.0027,-187500.0224,-184118.5163,-187500.0224,-187500.0224,0.342,-0.068,0.926,192,0,0,0,0,0,0,0,0,0,0
 2023-06-27 18:17:14.624,-187500.0224,-187500.0224,-187500.0224,-178302.9948,-187500.0224,-184272.8998,-187500.0224,-187500.0224,0.342,-0.068,0.926,192,0,0,0,0,0,0,0,0,0,0
 2023-06-27 18:17:14.624,-187500.0224,-187500.0224,-187500.0224,-179042.8375,-187500.0224,-185622.677,-187500.0224,-187500.0224,0.342,-0.068,0.926,192,0,0,0,0,0,0,0,0,0,0
 2023-06-27 18:17:14.624,-187500.0224,-187500.0224,-187500.0224,-179366.1778,-187500.0224,-186206.9963,-187500.0224,-187500.0224,0.342,-0.068,0.926,192,0,0,0,0,0,0,0,0,0,0
 2023-06-27 18:17:14.624,-187500.0224,-187500.0224,-187500.0224,-178886.1741,-187500.0224,-185327.9245,-187500.0224,-187500.0224,0.342,-0.068,0.926,192,0,0,0,0,0,0,0,0,0,0
 2023-06-27 18:17:14.624,-187500.0224,-187500.0224,-187500.0224,-178218.2593,-187500.0224,-184118.114,-187500.0224,-187500.0224,0.342,-0.068,0.926,192,0,0,0,0,0,0,0,0,0,0
 2023-06-27 18:17:14.624,-187500.0224,-187500.0224,-187500.0224,-178298.9044,-187500.0224,-184266.0602,-187500.0224,-187500.0224,0.346,-0.07,0.928,192,10,208,253,208,29,0,0,0,0,0
 2023-06-27 18:17:14.624,-187500.0224,-187500.0224,-187500.0224,-179040.4906,-187500.0224,-185617.2008,-187500.0224,-187500.0224,0.346,-0.07,0.928,192,0,0,0,0,0,0,0,0,0,0
 2023-06-27 18:17:14.624,-187500.0224,-187500.0224,-187500.0224,-179371.274,-187500.0224,-186212.4054,-187500.0224,-187500.0224,0.346,-0.07,0.928,192,0,0,0,0,0,0,0,0,0,0
 2023-06-27 18:17:14.624,-187500.0224,-187500.0224,-187500.0224,-178893.4608,-187500.0224,-185337.8487,-187500.0224,-187500.0224,0.346,-0.07,0.928,192,0,0,0,0,0,0,0,0,0,0
 2023-06-27 18:17:14.624,-187500.0224,-187500.0224,-187500.0224,-178219.8686,-187500.0224,-184120.975,-187500.0224,-187500.0224,0.346,-0.07,0.928,192,0,0,0,0,0,0,0,0,0,0
 2023-06-27 18:17:14.624,-187500.0224,-187500.0224,-187500.0224,-178297.228,-187500.0224,-184263.4451,-187500.0224,-187500.0224,0.346,-0.07,0.928,192,0,0,0,0,0,0,0,0,0,0
 2023-06-27 18:17:14.624,-187500.0224,-187500.0224,-187500.0224,-179038.7918,-187500.0224,-185614.3845,-187500.0224,-187500.0224,0.346,-0.07,0.928,192,0,0,0,0,0,0,0,0,0,0
 2023-06-27 18:17:14.624,-187500.0224,-187500.0224,-187500.0224,-179370.9164,-187500.0224,-186213.1207,-187500.0224,-187500.0224,0.346,-0.07,0.928,192,0,0,0,0,0,0,0,0,0,0
 2023-06-27 18:17:14.624,-187500.0224,-187500.0224,-187500.0224,-178898.8029,-187500.0224,-185347.0129,-187500.0224,-187500.0224,0.346,-0.07,0.928,192,0,0,0,0,0,0,0,0,0,0
 2023-06-27 18:17:14.624,-187500.0224,-187500.0224,-187500.0224,-178222.4391,-187500.0224,-184124.3278,-187500.0224,-187500.0224,0.346,-0.07,0.928,192,0,0,0,0,0,0,0,0,0,0
 2023-06-27 18:17:14.624,-187500.0224,-187500.0224,-187500.0224,-178289.7625,-187500.0224,-184251.621,-187500.0224,-187500.0224,0.344,-0.07,0.918,192,10,192,253,208,28,176,0,0,0,0
 2023-06-27 18:17:14.624,-187500.0224,-187500.0224,-187500.0224,-179029.4712,-187500.0224,-185599.4982,-187500.0224,-187500.0224,0.344,-0.07,0.918,192,0,0,0,0,0,0,0,0,0,0
 2023-06-27 18:17:15.104,-187500.0224,-187500.0224,-187500.0224,-179370.5588,-187500.0224,-186211.869,-187500.0224,-187500.0224,0.344,-0.07,0.918,192,0,0,0,0,0,0,0,0,0,0
 2023-06-27 18:17:15.104,-187500.0224,-187500.0224,-187500.0224,-178902.3121,-187500.0224,-185353.1149,-187500.0224,-187500.0224,0.344,-0.07,0.918,192,0,0,0,0,0,0,0,0,0,0
 2023-06-27 18:17:15.104,-187500.0224,-187500.0224,-187500.0224,-178222.5732,-187500.0224,-184124.8866,-187500.0224,-187500.0224,0.344,-0.07,0.918,192,0,0,0,0,0,0,0,0,0,0
 2023-06-27 18:17:15.104,-187500.0224,-187500.0224,-187500.0224,-178288.332,-187500.0224,-184247.9106,-187500.0224,-187500.0224,0.344,-0.07,0.918,192,0,0,0,0,0,0,0,0,0,0
 2023-06-27 18:17:15.104,-187500.0224,-187500.0224,-187500.0224,-179026.3866,-187500.0224,-185593.955,-187500.0224,-187500.0224,0.344,-0.07,0.918,192,0,0,0,0,0,0,0,0,0,0
 2023-06-27 18:17:15.104,-187500.0224,-187500.0224,-187500.0224,-179369.3741,-187500.0224,-186211.1984,-187500.0224,-187500.0224,0.344,-0.07,0.918,192,0,0,0,0,0,0,0,0,0,0
 2023-06-27 18:17:15.104,-187500.0224,-187500.0224,-187500.0224,-178901.2169,-187500.0224,-185355.2384,-187500.0224,-187500.0224,0.344,-0.07,0.918,192,0,0,0,0,0,0,0,0,0,0
 2023-06-27 18:17:15.104,-187500.0224,-187500.0224,-187500.0224,-178218.4828,-187500.0224,-184122.5397,-187500.0224,-187500.0224,0.344,-0.07,0.918,192,0,0,0,0,0,0,0,0,0,0
 2023-06-27 18:17:15.104,-187500.0224,-187500.0224,-187500.0224,-178280.9559,-187500.0224,-184238.0758,-187500.0224,-187500.0224,0.344,-0.07,0.918,192,10,192,253,208,28,176,0,0,0,0
 2023-06-27 18:17:15.104,-187500.0224,-187500.0224,-187500.0224,-179019.994,-187500.0224,-185583.6508,-187500.0224,-187500.0224,0.344,-0.07,0.918,192,0,0,0,0,0,0,0,0,0,0
 2023-06-27 18:17:15.104,-187500.0224,-187500.0224,-187500.0224,-179365.4626,-187500.0224,-186207.1527,-187500.0224,-187500.0224,0.344,-0.07,0.918,192,0,0,0,0,0,0,0,0,0,0
 2023-06-27 18:17:15.104,-187500.0224,-187500.0224,-187500.0224,-178904.9049,-187500.0224,-185362.2568,-187500.0224,-187500.0224,0.344,-0.07,0.918,192,0,0,0,0,0,0,0,0,0,0
 2023-06-27 18:17:15.104,-187500.0224,-187500.0224,-187500.0224,-178220.6733,-187500.0224,-184126.3395,-187500.0224,-187500.0224,0.344,-0.07,0.918,192,0,0,0,0,0,0,0,0,0,0
 2023-06-27 18:17:15.104,-187500.0224,-187500.0224,-187500.0224,-178280.8889,-187500.0224,-184236.4218,-187500.0224,-187500.0224,0.344,-0.07,0.918,192,0,0,0,0,0,0,0,0,0,0
 2023-06-27 18:17:15.104,-187500.0224,-187500.0224,-187500.0224,-179018.6306,-187500.0224,-185579.8063,-187500.0224,-187500.0224,0.344,-0.07,0.918,192,0,0,0,0,0,0,0,0,0,0
 2023-06-27 18:17:15.104,-187500.0224,-187500.0224,-187500.0224,-179369.4412,-187500.0224,-186212.1819,-187500.0224,-187500.0224,0.344,-0.07,0.918,192,0,0,0,0,0,0,0,0,0,0
 2023-06-27 18:17:15.104,-187500.0224,-187500.0224,-187500.0224,-178910.5375,-187500.0224,-185371.9351,-187500.0224,-187500.0224,0.344,-0.07,0.918,192,0,0,0,0,0,0,0,0,0,0
 2023-06-27 18:17:15.104,-187500.0224,-187500.0224,-187500.0224,-178223.6684,-187500.0224,-184130.8992,-187500.0224,-187500.0224,0.344,-0.07,0.918,192,0,0,0,0,0,0,0,0,0,0
 2023-06-27 18:17:15.104,-187500.0224,-187500.0224,-187500.0224,-178276.195,-187500.0224,-184229.4257,-187500.0224,-187500.0224,0.346,-0.06,0.924,192,10,208,254,32,28,224,0,0,0,0
 2023-06-27 18:17:15.104,-187500.0224,-187500.0224,-187500.0224,-179013.7579,-187500.0224,-185572.2291,-187500.0224,-187500.0224,0.346,-0.06,0.924,192,0,0,0,0,0,0,0,0,0,0
 2023-06-27 18:17:15.104,-187500.0224,-187500.0224,-187500.0224,-179370.8941,-187500.0224,-186214.2383,-187500.0224,-187500.0224,0.346,-0.06,0.924,192,0,0,0,0,0,0,0,0,0,0
 2023-06-27 18:17:15.104,-187500.0224,-187500.0224,-187500.0224,-178915.522,-187500.0224,-185379.9817,-187500.0224,-187500.0224,0.346,-0.06,0.924,192,0,0,0,0,0,0,0,0,0,0
 2023-06-27 18:17:15.104,-187500.0224,-187500.0224,-187500.0224,-178228.6082,-187500.0224,-184137.493,-187500.0224,-187500.0224,0.346,-0.06,0.924,192,0,0,0,0,0,0,0,0,0,0
 2023-06-27 18:17:15.104,-187500.0224,-187500.0224,-187500.0224,-178276.4409,-187500.0224,-184230.0515,-187500.0224,-187500.0224,0.346,-0.06,0.924,192,0,0,0,0,0,0,0,0,0,0
 2023-06-27 18:17:15.104,-187500.0224,-187500.0224,-187500.0224,-179012.4615,-187500.0224,-185571.8268,-187500.0224,-187500.0224,0.346,-0.06,0.924,192,0,0,0,0,0,0,0,0,0,0
 2023-06-27 18:17:15.104,-187500.0224,-187500.0224,-187500.0224,-179367.7425,-187500.0224,-186212.9419,-187500.0224,-187500.0224,0.346,-0.06,0.924,192,0,0,0,0,0,0,0,0,0,0
 2023-06-27 18:17:15.104,-187500.0224,-187500.0224,-187500.0224,-178912.1469,-187500.0224,-185381.144,-187500.0224,-187500.0224,0.346,-0.06,0.924,192,0,0,0,0,0,0,0,0,0,0
 2023-06-27 18:17:15.104,-187500.0224,-187500.0224,-187500.0224,-178220.718,-187500.0224,-184131.905,-187500.0224,-187500.0224,0.346,-0.06,0.924,192,0,0,0,0,0,0,0,0,0,0
 2023-06-27 18:17:15.104,-187500.0224,-187500.0224,-187500.0224,-178265.7344,-187500.0224,-184216.6628,-187500.0224,-187500.0224,0.342,-0.06,0.922,192,10,176,254,32,28,208,0,0,0,0
 2023-06-27 18:17:15.104,-187500.0224,-187500.0224,-187500.0224,-179002.1126,-187500.0224,-185556.7617,-187500.0224,-187500.0224,0.342,-0.06,0.922,192,0,0,0,0,0,0,0,0,0,0
 2023-06-27 18:17:15.104,-187500.0224,-187500.0224,-187500.0224,-179364.6803,-187500.0224,-186209.4103,-187500.0224,-187500.0224,0.342,-0.06,0.922,192,0,0,0,0,0,0,0,0,0,0
 2023-06-27 18:17:15.104,-187500.0224,-187500.0224,-187500.0224,-178916.1031,-187500.0224,-185387.4696,-187500.0224,-187500.0224,0.342,-0.06,0.922,192,0,0,0,0,0,0,0,0,0,0
 2023-06-27 18:17:15.104,-187500.0224,-187500.0224,-187500.0224,-178224.1378,-187500.0224,-184135.9954,-187500.0224,-187500.0224,0.342,-0.06,0.922,192,0,0,0,0,0,0,0,0,0,0
 2023-06-27 18:17:15.104,-187500.0224,-187500.0224,-187500.0224,-178264.058,-187500.0224,-184212.2596,-187500.0224,-187500.0224,0.342,-0.06,0.922,192,0,0,0,0,0,0,0,0,0,0
 2023-06-27 18:17:15.104,-187500.0224,-187500.0224,-187500.0224,-178999.1175,-187500.0224,-185550.5479,-187500.0224,-187500.0224,0.342,-0.06,0.922,192,0,0,0,0,0,0,0,0,0,0
 2023-06-27 18:17:15.104,-187500.0224,-187500.0224,-187500.0224,-179366.4461,-187500.0224,-186211.1537,-187500.0224,-187500.0224,0.342,-0.06,0.922,192,0,0,0,0,0,0,0,0,0,0
 2023-06-27 18:17:15.104,-187500.0224,-187500.0224,-187500.0224,-178920.5064,-187500.0224,-185394.2422,-187500.0224,-187500.0224,0.342,-0.06,0.922,192,0,0,0,0,0,0,0,0,0,0
 2023-06-27 18:17:15.104,-187500.0224,-187500.0224,-187500.0224,-178223.132,-187500.0224,-184135.5484,-187500.0224,-187500.0224,0.342,-0.06,0.922,192,0,0,0,0,0,0,0,0,0,0
 2023-06-27 18:17:15.104,-187500.0224,-187500.0224,-187500.0224,-178259.3195,-187500.0224,-184205.3082,-187500.0224,-187500.0224,0.342,-0.066,0.922,192,10,176,253,240,28,208,0,0,0,0
 2023-06-27 18:17:15.104,-187500.0224,-187500.0224,-187500.0224,-178992.9261,-187500.0224,-185541.7637,-187500.0224,-187500.0224,0.342,-0.066,0.922,192,0,0,0,0,0,0,0,0,0,0
 2023-06-27 18:17:15.104,-187500.0224,-187500.0224,-187500.0224,-179363.0039,-187500.0224,-186208.4492,-187500.0224,-187500.0224,0.342,-0.066,0.922,192,0,0,0,0,0,0,0,0,0,0
 2023-06-27 18:17:15.104,-187500.0224,-187500.0224,-187500.0224,-178919.7688,-187500.0224,-185397.282,-187500.0224,-187500.0224,0.342,-0.066,0.922,192,0,0,0,0,0,0,0,0,0,0
 2023-06-27 18:17:15.104,-187500.0224,-187500.0224,-187500.0224,-178222.1262,-187500.0224,-184136.5542,-187500.0224,-187500.0224,0.342,-0.066,0.922,192,0,0,0,0,0,0,0,0,0,0
 2023-06-27 18:17:15.104,-187500.0224,-187500.0224,-187500.0224,-178256.4808,-187500.0224,-184201.5531,-187500.0224,-187500.0224,0.342,-0.066,0.922,192,0,0,0,0,0,0,0,0,0,0
 2023-06-27 18:17:15.104,-187500.0224,-187500.0224,-187500.0224,-178991.8979,-187500.0224,-185539.4614,-187500.0224,-187500.0224,0.342,-0.066,0.922,192,0,0,0,0,0,0,0,0,0,0
 2023-06-27 18:17:15.104,-187500.0224,-187500.0224,-187500.0224,-179364.1885,-187500.0224,-186211.4219,-187500.0224,-187500.0224,0.342,-0.066,0.922,192,0,0,0,0,0,0,0,0,0,0
 2023-06-27 18:17:15.104,-187500.0224,-187500.0224,-187500.0224,-178923.5239,-187500.0224,-185403.9652,-187500.0224,-187500.0224,0.342,-0.066,0.922,192,0,0,0,0,0,0,0,0,0,0
 2023-06-27 18:17:15.104,-187500.0224,-187500.0224,-187500.0224,-178225.9036,-187500.0224,-184141.9633,-187500.0224,-187500.0224,0.342,-0.066,0.922,192,0,0,0,0,0,0,0,0,0,0
 2023-06-27 18:17:15.104,-187500.0224,-187500.0224,-187500.0224,-178256.302,-187500.0224,-184200.6814,-187500.0224,-187500.0224,0.344,-0.066,0.928,192,10,192,253,240,29,0,0,0,0,0
 2023-06-27 18:17:15.104,-187500.0224,-187500.0224,-187500.0224,-178988.6792,-187500.0224,-185534.6558,-187500.0224,-187500.0224,0.344,-0.066,0.928,192,0,0,0,0,0,0,0,0,0,0
 2023-06-27 18:17:15.104,-187500.0224,-187500.0224,-187500.0224,-179364.7697,-187500.0224,-186212.4725,-187500.0224,-187500.0224,0.344,-0.066,0.928,192,0,0,0,0,0,0,0,0,0,0
 2023-06-27 18:17:15.104,-187500.0224,-187500.0224,-187500.0224,-178931.5482,-187500.0224,-185417.6891,-187500.0224,-187500.0224,0.344,-0.066,0.928,192,0,0,0,0,0,0,0,0,0,0
 2023-06-27 18:17:15.104,-187500.0224,-187500.0224,-187500.0224,-178233.9502,-187500.0224,-184154.9497,-187500.0224,-187500.0224,0.344,-0.066,0.928,192,0,0,0,0,0,0,0,0,0,0
 2023-06-27 18:17:15.104,-187500.0224,-187500.0224,-187500.0224,-178256.9949,-187500.0224,-184201.4413,-187500.0224,-187500.0224,0.344,-0.066,0.928,192,0,0,0,0,0,0,0,0,0,0
 2023-06-27 18:17:15.104,-187500.0224,-187500.0224,-187500.0224,-178985.17,-187500.0224,-185527.6597,-187500.0224,-187500.0224,0.344,-0.066,0.928,192,0,0,0,0,0,0,0,0,0,0
 2023-06-27 18:17:15.104,-187500.0224,-187500.0224,-187500.0224,-179367.0719,-187500.0224,-186215.0429,-187500.0224,-187500.0224,0.344,-0.066,0.928,192,0,0,0,0,0,0,0,0,0,0
 2023-06-27 18:17:15.104,-187500.0224,-187500.0224,-187500.0224,-178936.9126,-187500.0224,-185426.9204,-187500.0224,-187500.0224,0.344,-0.066,0.928,192,0,0,0,0,0,0,0,0,0,0
 2023-06-27 18:17:15.104,-187500.0224,-187500.0224,-187500.0224,-178235.2913,-187500.0224,-184159.1518,-187500.0224,-187500.0224,0.344,-0.066,0.928,192,0,0,0,0,0,0,0,0,0,0
 2023-06-27 18:17:15.105,-187500.0224,-187500.0224,-187500.0224,-178253.6421,-187500.0224,-184197.6639,-187500.0224,-187500.0224,0.346,-0.068,0.926,192,10,208,253,224,28,240,0,0,0,0
 2023-06-27 18:17:15.105,-187500.0224,-187500.0224,-187500.0224,-178980.3867,-187500.0224,-185521.066,-187500.0224,-187500.0224,0.346,-0.068,0.926,192,0,0,0,0,0,0,0,0,0,0
 2023-06-27 18:17:15.105,-187500.0224,-187500.0224,-187500.0224,-179365.8649,-187500.0224,-186214.7523,-187500.0224,-187500.0224,0.346,-0.068,0.926,192,0,0,0,0,0,0,0,0,0,0
 2023-06-27 18:17:15.105,-187500.0224,-187500.0224,-187500.0224,-178940.0195,-187500.0224,-185433.76,-187500.0224,-187500.0224,0.346,-0.068,0.926,192,0,0,0,0,0,0,0,0,0,0
 2023-06-27 18:17:15.105,-187500.0224,-187500.0224,-187500.0224,-178238.8676,-187500.0224,-184165.7232,-187500.0224,-187500.0224,0.346,-0.068,0.926,192,0,0,0,0,0,0,0,0,0,0
 2023-06-27 18:17:15.105,-187500.0224,-187500.0224,-187500.0224,-178256.7043,-187500.0224,-184201.6425,-187500.0224,-187500.0224,0.346,-0.068,0.926,192,0,0,0,0,0,0,0,0,0,0
 2023-06-27 18:17:15.105,-187500.0224,-187500.0224,-187500.0224,-178981.102,-187500.0224,-185521.6471,-187500.0224,-187500.0224,0.346,-0.068,0.926,192,0,0,0,0,0,0,0,0,0,0
 2023-06-27 18:17:15.105,-187500.0224,-187500.0224,-187500.0224,-179368.9271,-187500.0224,-186219.9603,-187500.0224,-187500.0224,0.346,-0.068,0.926,192,0,0,0,0,0,0,0,0,0,0
 2023-06-27 18:17:15.105,-187500.0224,-187500.0224,-187500.0224,-178944.5792,-187500.0224,-185442.8125,-187500.0224,-187500.0224,0.346,-0.068,0.926,192,0,0,0,0,0,0,0,0,0,0
 2023-06-27 18:17:15.105,-187500.0224,-187500.0224,-187500.0224,-178239.8958,-187500.0224,-184169.2995,-187500.0224,-187500.0224,0.346,-0.068,0.926,192,0,0,0,0,0,0,0,0,0,0
 2023-06-27 18:17:15.105,-187500.0224,-187500.0224,-187500.0224,-178249.06,-187500.0224,-184192.6794,-187500.0224,-187500.0224,0.35,-0.064,0.92,192,10,240,254,0,28,192,0,0,0,0
 2023-06-27 18:17:15.105,-187500.0224,-187500.0224,-187500.0224,-178973.4577,-187500.0224,-185511.2312,-187500.0224,-187500.0224,0.35,-0.064,0.92,192,0,0,0,0,0,0,0,0,0,0
 2023-06-27 18:17:15.105,-187500.0224,-187500.0224,-187500.0224,-179370.0,-187500.0224,-186221.9943,-187500.0224,-187500.0224,0.35,-0.064,0.92,192,0,0,0,0,0,0,0,0,0,0
 2023-06-27 18:17:15.105,-187500.0224,-187500.0224,-187500.0224,-178954.2352,-187500.0224,-185457.1176,-187500.0224,-187500.0224,0.35,-0.064,0.92,192,0,0,0,0,0,0,0,0,0,0
 2023-06-27 18:17:15.105,-187500.0224,-187500.0224,-187500.0224,-178246.8025,-187500.0224,-184179.2907,-187500.0224,-187500.0224,0.35,-0.064,0.92,192,0,0,0,0,0,0,0,0,0,0
 2023-06-27 18:17:15.105,-187500.0224,-187500.0224,-187500.0224,-178251.8316,-187500.0224,-184194.9593,-187500.0224,-187500.0224,0.35,-0.064,0.92,192,0,0,0,0,0,0,0,0,0,0
 2023-06-27 18:17:15.105,-187500.0224,-187500.0224,-187500.0224,-178970.0155,-187500.0224,-185505.1962,-187500.0224,-187500.0224,0.35,-0.064,0.92,192,0,0,0,0,0,0,0,0,0,0
 2023-06-27 18:17:15.105,-187500.0224,-187500.0224,-187500.0224,-179363.6968,-187500.0224,-186215.7135,-187500.0224,-187500.0224,0.35,-0.064,0.92,192,0,0,0,0,0,0,0,0,0,0
 2023-06-27 18:17:15.105,-187500.0224,-187500.0224,-187500.0224,-178949.4743,-187500.0224,-185455.7542,-187500.0224,-187500.0224,0.35,-0.064,0.92,192,0,0,0,0,0,0,0,0,0,0
 2023-06-27 18:17:15.105,-187500.0224,-187500.0224,-187500.0224,-178243.2709,-187500.0224,-184178.1731,-187500.0224,-187500.0224,0.35,-0.064,0.92,192,0,0,0,0,0,0,0,0,0,0
 2023-06-27 18:17:15.105,-187500.0224,-187500.0224,-187500.0224,-178245.8637,-187500.0224,-184188.075,-187500.0224,-187500.0224,0.352,-0.064,0.924,192,11,0,254,0,28,224,0,0,0,0
 2023-06-27 18:17:15.105,-187500.0224,-187500.0224,-187500.0224,-178964.4276,-187500.0224,-185497.5743,-187500.0224,-187500.0224,0.352,-0.064,0.924,192,0,0,0,0,0,0,0,0,0,0
 2023-06-27 18:17:15.105,-187500.0224,-187500.0224,-187500.0224,-179363.4062,-187500.0224,-186216.1829,-187500.0224,-187500.0224,0.352,-0.064,0.924,192,0,0,0,0,0,0,0,0,0,0
 2023-06-27 18:17:15.105,-187500.0224,-187500.0224,-187500.0224,-178954.1458,-187500.0224,-185464.3149,-187500.0224,-187500.0224,0.352,-0.064,0.924,192,0,0,0,0,0,0,0,0,0,0
 2023-06-27 18:17:15.105,-187500.0224,-187500.0224,-187500.0224,-178244.545,-187500.0224,-184182.2188,-187500.0224,-187500.0224,0.352,-0.064,0.924,192,0,0,0,0,0,0,0,0,0,0
 2023-06-27 18:17:15.105,-187500.0224,-187500.0224,-187500.0224,-178244.992,-187500.0224,-184186.5998,-187500.0224,-187500.0224,0.352,-0.064,0.924,192,0,0,0,0,0,0,0,0,0,0
 2023-06-27 18:17:15.105,-187500.0224,-187500.0224,-187500.0224,-178960.3596,-187500.0224,-185491.0252,-187500.0224,-187500.0224,0.352,-0.064,0.924,192,0,0,0,0,0,0,0,0,0,0
 2023-06-27 18:17:15.105,-187500.0224,-187500.0224,-187500.0224,-179362.8921,-187500.0224,-186216.0934,-187500.0224,-187500.0224,0.352,-0.064,0.924,192,0,0,0,0,0,0,0,0,0,0
 2023-06-27 18:17:15.105,-187500.0224,-187500.0224,-187500.0224,-178956.2916,-187500.0224,-185470.171,-187500.0224,-187500.0224,0.352,-0.064,0.924,192,0,0,0,0,0,0,0,0,0,0
 2023-06-27 18:17:15.105,-187500.0224,-187500.0224,-187500.0224,-178244.3661,-187500.0224,-184184.0517,-187500.0224,-187500.0224,0.352,-0.064,0.924,192,0,0,0,0,0,0,0,0,0,0
 2023-06-27 18:17:15.105,-187500.0224,-187500.0224,-187500.0224,-178239.0911,-187500.0224,-184179.0672,-187500.0224,-187500.0224,0.352,-0.064,0.924,192,0,0,0,0,0,0,0,0,0,0
 2023-06-27 18:17:15.105,-187500.0224,-187500.0224,-187500.0224,-178955.4645,-187500.0224,-185483.6268,-187500.0224,-187500.0224,0.344,-0.064,0.924,192,10,192,254,0,28,224,0,0,0,0
 2023-06-27 18:17:15.105,-187500.0224,-187500.0224,-187500.0224,-179362.4898,-187500.0224,-186215.9817,-187500.0224,-187500.0224,0.344,-0.064,0.924,192,0,0,0,0,0,0,0,0,0,0
 2023-06-27 18:17:15.105,-187500.0224,-187500.0224,-187500.0224,-178957.2974,-187500.0224,-185474.1943,-187500.0224,-187500.0224,0.344,-0.064,0.924,192,0,0,0,0,0,0,0,0,0,0
 2023-06-27 18:17:15.105,-187500.0224,-187500.0224,-187500.0224,-178245.059,-187500.0224,-184186.041,-187500.0224,-187500.0224,0.344,-0.064,0.924,192,0,0,0,0,0,0,0,0,0,0
 2023-06-27 18:17:15.105,-187500.0224,-187500.0224,-187500.0224,-178234.7996,-187500.0224,-184172.7193,-187500.0224,-187500.0224,0.344,-0.064,0.924,192,0,0,0,0,0,0,0,0,0,0
 2023-06-27 18:17:15.105,-187500.0224,-187500.0224,-187500.0224,-178947.4179,-187500.0224,-185471.6686,-187500.0224,-187500.0224,0.344,-0.064,0.924,192,0,0,0,0,0,0,0,0,0,0
 2023-06-27 18:17:15.105,-187500.0224,-187500.0224,-187500.0224,-179356.7678,-187500.0224,-186209.9467,-187500.0224,-187500.0224,0.344,-0.064,0.924,192,0,0,0,0,0,0,0,0,0,0
 2023-06-27 18:17:15.105,-187500.0224,-187500.0224,-187500.0224,-178955.0846,-187500.0224,-185473.8814,-187500.0224,-187500.0224,0.344,-0.064,0.924,192,0,0,0,0,0,0,0,0,0,0
 2023-06-27 18:17:15.105,-187500.0224,-187500.0224,-187500.0224,-178242.9133,-187500.0224,-184184.6104,-187500.0224,-187500.0224,0.344,-0.064,0.924,192,0,0,0,0,0,0,0,0,0,0
 2023-06-27 18:17:15.105,-187500.0224,-187500.0224,-187500.0224,-178232.0727,-187500.0224,-184167.8913,-187500.0224,-187500.0224,0.344,-0.064,0.924,192,0,0,0,0,0,0,0,0,0,0
 2023-06-27 18:17:15.105,-187500.0224,-187500.0224,-187500.0224,-178943.7746,-187500.0224,-185465.3207,-187500.0224,-187500.0224,0.346,-0.07,0.924,192,10,208,253,208,28,224,0,0,0,0
 2023-06-27 18:17:15.105,-187500.0224,-187500.0224,-187500.0224,-179357.4383,-187500.0224,-186210.9972,-187500.0224,-187500.0224,0.346,-0.07,0.924,192,0,0,0,0,0,0,0,0,0,0
 2023-06-27 18:17:15.105,-187500.0224,-187500.0224,-187500.0224,-178959.3984,-187500.0224,-185482.5092,-187500.0224,-187500.0224,0.346,-0.07,0.924,192,0,0,0,0,0,0,0,0,0,0
 2023-06-27 18:17:15.105,-187500.0224,-187500.0224,-187500.0224,-178244.9249,-187500.0224,-184189.0361,-187500.0224,-187500.0224,0.346,-0.07,0.924,192,0,0,0,0,0,0,0,0,0,0
 2023-06-27 18:17:15.105,-187500.0224,-187500.0224,-187500.0224,-178229.9493,-187500.0224,-184164.7174,-187500.0224,-187500.0224,0.346,-0.07,0.924,192,0,0,0,0,0,0,0,0,0,0
 2023-06-27 18:17:15.105,-187500.0224,-187500.0224,-187500.0224,-178942.3441,-187500.0224,-185461.9009,-187500.0224,-187500.0224,0.346,-0.07,0.924,192,0,0,0,0,0,0,0,0,0,0
 2023-06-27 18:17:15.105,-187500.0224,-187500.0224,-187500.0224,-179358.8018,-187500.0224,-186213.4336,-187500.0224,-187500.0224,0.346,-0.07,0.924,192,0,0,0,0,0,0,0,0,0,0
 2023-06-27 18:17:15.105,-187500.0224,-187500.0224,-187500.0224,-178965.1428,-187500.0224,-185491.7628,-187500.0224,-187500.0224,0.346,-0.07,0.924,192,0,0,0,0,0,0,0,0,0,0
 2023-06-27 18:17:15.105,-187500.0224,-187500.0224,-187500.0224,-178250.1105,-187500.0224,-184195.8981,-187500.0224,-187500.0224,0.346,-0.07,0.924,192,0,0,0,0,0,0,0,0,0,0
 2023-06-27 18:17:15.105,-187500.0224,-187500.0224,-187500.0224,-178228.3176,-187500.0224,-184161.6552,-187500.0224,-187500.0224,0.346,-0.07,0.924,192,0,0,0,0,0,0,0,0,0,0
 2023-06-27 18:17:15.105,-187500.0224,-187500.0224,-187500.0224,-178938.0302,-187500.0224,-185455.1954,-187500.0224,-187500.0224,0.342,-0.07,0.924,192,10,176,253,208,28,224,0,0,0,0
 2023-06-27 18:17:15.105,-187500.0224,-187500.0224,-187500.0224,-179359.4723,-187500.0224,-186214.7747,-187500.0224,-187500.0224,0.342,-0.07,0.924,192,0,0,0,0,0,0,0,0,0,0
 2023-06-27 18:17:15.105,-187500.0224,-187500.0224,-187500.0224,-178968.8979,-187500.0224,-185498.7142,-187500.0224,-187500.0224,0.342,-0.07,0.924,192,0,0,0,0,0,0,0,0,0,0
 2023-06-27 18:17:15.105,-187500.0224,-187500.0224,-187500.0224,-178250.0211,-187500.0224,-184197.8203,-187500.0224,-187500.0224,0.342,-0.07,0.924,192,0,0,0,0,0,0,0,0,0,0
 2023-06-27 18:17:15.105,-187500.0224,-187500.0224,-187500.0224,-178225.7695,-187500.0224,-184158.1683,-187500.0224,-187500.0224,0.342,-0.07,0.924,192,0,0,0,0,0,0,0,0,0,0
 2023-06-27 18:17:15.105,-187500.0224,-187500.0224,-187500.0224,-178933.5822,-187500.0224,-185448.9145,-187500.0224,-187500.0224,0.342,-0.07,0.924,192,0,0,0,0,0,0,0,0,0,0
 2023-06-27 18:17:15.105,-187500.0224,-187500.0224,-187500.0224,-179360.4558,-187500.0224,-186216.6075,-187500.0224,-187500.0224,0.342,-0.07,0.924,192,0,0,0,0,0,0,0,0,0,0
 2023-06-27 18:17:15.105,-187500.0224,-187500.0224,-187500.0224,-178972.8542,-187500.0224,-185505.7997,-187500.0224,-187500.0224,0.342,-0.07,0.924,192,0,0,0,0,0,0,0,0,0,0
 2023-06-27 18:17:15.105,-187500.0224,-187500.0224,-187500.0224,-178249.2835,-187500.0224,-184198.5579,-187500.0224,-187500.0224,0.342,-0.07,0.924,192,0,0,0,0,0,0,0,0,0,0
 2023-06-27 18:17:15.105,-187500.0224,-187500.0224,-187500.0224,-178219.9804,-187500.0224,-184150.8146,-187500.0224,-187500.0224,0.342,-0.07,0.924,192,0,0,0,0,0,0,0,0,0,0
 2023-06-27 18:17:15.105,-187500.0224,-187500.0224,-187500.0224,-178928.4413,-187500.0224,-185441.1585,-187500.0224,-187500.0224,0.336,-0.07,0.922,192,10,128,253,208,28,208,0,0,0,0
 2023-06-27 18:17:15.105,-187500.0224,-187500.0224,-187500.0224,-179357.416,-187500.0224,-186213.3665,-187500.0224,-187500.0224,0.336,-0.07,0.922,192,0,0,0,0,0,0,0,0,0,0
 2023-06-27 18:17:15.582,-187500.0224,-187500.0224,-187500.0224,-178972.6754,-187500.0224,-185508.2584,-187500.0224,-187500.0224,0.336,-0.07,0.922,192,0,0,0,0,0,0,0,0,0,0
 2023-06-27 18:17:15.582,-187500.0224,-187500.0224,-187500.0224,-178249.887,-187500.0224,-184200.5025,-187500.0224,-187500.0224,0.336,-0.07,0.922,192,0,0,0,0,0,0,0,0,0,0
 2023-06-27 18:17:15.582,-187500.0224,-187500.0224,-187500.0224,-178217.2982,-187500.0224,-184146.7913,-187500.0224,-187500.0224,0.336,-0.07,0.922,192,0,0,0,0,0,0,0,0,0,0
 2023-06-27 18:17:15.582,-187500.0224,-187500.0224,-187500.0224,-178923.2333,-187500.0224,-185433.2683,-187500.0224,-187500.0224,0.336,-0.07,0.922,192,0,0,0,0,0,0,0,0,0,0
 2023-06-27 18:17:15.582,-187500.0224,-187500.0224,-187500.0224,-179354.5102,-187500.0224,-186210.4385,-187500.0224,-187500.0224,0.336,-0.07,0.922,192,0,0,0,0,0,0,0,0,0,0
 2023-06-27 18:17:15.582,-187500.0224,-187500.0224,-187500.0224,-178974.8435,-187500.0224,-185513.444,-187500.0224,-187500.0224,0.336,-0.07,0.922,192,0,0,0,0,0,0,0,0,0,0
 2023-06-27 18:17:15.582,-187500.0224,-187500.0224,-187500.0224,-178251.7869,-187500.0224,-184204.0341,-187500.0224,-187500.0224,0.336,-0.07,0.922,192,0,0,0,0,0,0,0,0,0,0
 2023-06-27 18:17:15.582,-187500.0224,-187500.0224,-187500.0224,-178216.0688,-187500.0224,-184143.7515,-187500.0224,-187500.0224,0.336,-0.07,0.922,192,0,0,0,0,0,0,0,0,0,0
 2023-06-27 18:17:15.582,-187500.0224,-187500.0224,-187500.0224,-178920.3946,-187500.0224,-185427.6804,-187500.0224,-187500.0224,0.34,-0.066,0.924,192,10,160,253,240,28,224,0,0,0,0
 2023-06-27 18:17:15.583,-187500.0224,-187500.0224,-187500.0224,-179355.7843,-187500.0224,-186212.7854,-187500.0224,-187500.0224,0.34,-0.066,0.924,192,0,0,0,0,0,0,0,0,0,0
 2023-06-27 18:17:15.583,-187500.0224,-187500.0224,-187500.0224,-178978.9562,-187500.0224,-185521.3118,-187500.0224,-187500.0224,0.34,-0.066,0.924,192,0,0,0,0,0,0,0,0,0,0
 2023-06-27 18:17:15.583,-187500.0224,-187500.0224,-187500.0224,-178254.6926,-187500.0224,-184209.4656,-187500.0224,-187500.0224,0.34,-0.066,0.924,192,0,0,0,0,0,0,0,0,0,0
 2023-06-27 18:17:15.583,-187500.0224,-187500.0224,-187500.0224,-178213.0066,-187500.0224,-184140.0411,-187500.0224,-187500.0224,0.34,-0.066,0.924,192,0,0,0,0,0,0,0,0,0,0
 2023-06-27 18:17:15.583,-187500.0224,-187500.0224,-187500.0224,-178916.4607,-187500.0224,-185421.936,-187500.0224,-187500.0224,0.34,-0.066,0.924,192,0,0,0,0,0,0,0,0,0,0
 2023-06-27 18:17:15.583,-187500.0224,-187500.0224,-187500.0224,-179355.069,-187500.0224,-186213.0983,-187500.0224,-187500.0224,0.34,-0.066,0.924,192,0,0,0,0,0,0,0,0,0,0
 2023-06-27 18:17:15.583,-187500.0224,-187500.0224,-187500.0224,-178982.1302,-187500.0224,-185528.1738,-187500.0224,-187500.0224,0.34,-0.066,0.924,192,0,0,0,0,0,0,0,0,0,0
 2023-06-27 18:17:15.583,-187500.0224,-187500.0224,-187500.0224,-178257.5537,-187500.0224,-184214.7853,-187500.0224,-187500.0224,0.34,-0.066,0.924,192,0,0,0,0,0,0,0,0,0,0
 2023-06-27 18:17:15.583,-187500.0224,-187500.0224,-187500.0224,-178214.5713,-187500.0224,-184141.3151,-187500.0224,-187500.0224,0.34,-0.066,0.924,192,0,0,0,0,0,0,0,0,0,0
 2023-06-27 18:17:15.583,-187500.0224,-187500.0224,-187500.0224,-178913.9573,-187500.0224,-185417.5774,-187500.0224,-187500.0224,0.336,-0.06,0.924,192,10,128,254,32,28,224,0,0,0,0
 2023-06-27 18:17:15.583,-187500.0224,-187500.0224,-187500.0224,-179355.4267,-187500.0224,-186214.6853,-187500.0224,-187500.0224,0.336,-0.06,0.924,192,0,0,0,0,0,0,0,0,0,0
 2023-06-27 18:17:15.583,-187500.0224,-187500.0224,-187500.0224,-178987.204,-187500.0224,-185537.0698,-187500.0224,-187500.0224,0.336,-0.06,0.924,192,0,0,0,0,0,0,0,0,0,0
 2023-06-27 18:17:15.583,-187500.0224,-187500.0224,-187500.0224,-178257.6654,-187500.0224,-184217.1099,-187500.0224,-187500.0224,0.336,-0.06,0.924,192,0,0,0,0,0,0,0,0,0,0
 2023-06-27 18:17:15.583,-187500.0224,-187500.0224,-187500.0224,-178210.7715,-187500.0224,-184136.8895,-187500.0224,-187500.0224,0.336,-0.06,0.924,192,0,0,0,0,0,0,0,0,0,0
 2023-06-27 18:17:15.583,-187500.0224,-187500.0224,-187500.0224,-178911.141,-187500.0224,-185413.7329,-187500.0224,-187500.0224,0.336,-0.06,0.924,192,0,0,0,0,0,0,0,0,0,0
 2023-06-27 18:17:15.583,-187500.0224,-187500.0224,-187500.0224,-179354.8008,-187500.0224,-186215.3335,-187500.0224,-187500.0224,0.336,-0.06,0.924,192,0,0,0,0,0,0,0,0,0,0
 2023-06-27 18:17:15.583,-187500.0224,-187500.0224,-187500.0224,-178988.2992,-187500.0224,-185542.613,-187500.0224,-187500.0224,0.336,-0.06,0.924,192,0,0,0,0,0,0,0,0,0,0
 2023-06-27 18:17:15.583,-187500.0224,-187500.0224,-187500.0224,-178260.5712,-187500.0224,-184223.4578,-187500.0224,-187500.0224,0.336,-0.06,0.924,192,0,0,0,0,0,0,0,0,0,0
 2023-06-27 18:17:15.583,-187500.0224,-187500.0224,-187500.0224,-178209.9221,-187500.0224,-184136.7777,-187500.0224,-187500.0224,0.336,-0.06,0.924,192,0,0,0,0,0,0,0,0,0,0
 2023-06-27 18:17:15.583,-187500.0224,-187500.0224,-187500.0224,-178908.1012,-187500.0224,-185410.0001,-187500.0224,-187500.0224,0.336,-0.06,0.922,192,10,128,254,32,28,208,0,0,0,0
 2023-06-27 18:17:15.583,-187500.0224,-187500.0224,-187500.0224,-179355.8513,-187500.0224,-186218.2839,-187500.0224,-187500.0224,0.336,-0.06,0.922,192,0,0,0,0,0,0,0,0,0,0
 2023-06-27 18:17:15.583,-187500.0224,-187500.0224,-187500.0224,-178992.2555,-187500.0224,-185551.4196,-187500.0224,-187500.0224,0.336,-0.06,0.922,192,0,0,0,0,0,0,0,0,0,0
 2023-06-27 18:17:15.583,-187500.0224,-187500.0224,-187500.0224,-178259.1406,-187500.0224,-184225.4471,-187500.0224,-187500.0224,0.336,-0.06,0.922,192,0,0,0,0,0,0,0,0,0,0
 2023-06-27 18:17:15.583,-187500.0224,-187500.0224,-187500.0224,-178202.0319,-187500.0224,-184127.1441,-187500.0224,-187500.0224,0.336,-0.06,0.922,192,0,0,0,0,0,0,0,0,0,0
 2023-06-27 18:17:15.583,-187500.0224,-187500.0224,-187500.0224,-178899.764,-187500.0224,-185396.7232,-187500.0224,-187500.0224,0.336,-0.06,0.922,192,0,0,0,0,0,0,0,0,0,0
 2023-06-27 18:17:15.583,-187500.0224,-187500.0224,-187500.0224,-179352.9233,-187500.0224,-186215.0876,-187500.0224,-187500.0224,0.336,-0.06,0.922,192,0,0,0,0,0,0,0,0,0,0
 2023-06-27 18:17:15.583,-187500.0224,-187500.0224,-187500.0224,-178993.0378,-187500.0224,-185556.1582,-187500.0224,-187500.0224,0.336,-0.06,0.922,192,0,0,0,0,0,0,0,0,0,0
 2023-06-27 18:17:15.583,-187500.0224,-187500.0224,-187500.0224,-178262.8957,-187500.0224,-184232.3761,-187500.0224,-187500.0224,0.336,-0.06,0.922,192,0,0,0,0,0,0,0,0,0,0
 2023-06-27 18:17:15.583,-187500.0224,-187500.0224,-187500.0224,-178201.8308,-187500.0224,-184126.9653,-187500.0224,-187500.0224,0.336,-0.06,0.922,192,0,0,0,0,0,0,0,0,0,0
 2023-06-27 18:17:15.583,-187500.0224,-187500.0224,-187500.0224,-178892.2538,-187500.0224,-185387.3131,-187500.0224,-187500.0224,0.338,-0.066,0.924,192,10,144,253,240,28,224,0,0,0,0
 2023-06-27 18:17:15.583,-187500.0224,-187500.0224,-187500.0224,-179349.5481,-187500.0224,-186212.5619,-187500.0224,-187500.0224,0.338,-0.066,0.924,192,0,0,0,0,0,0,0,0,0,0
 2023-06-27 18:17:15.583,-187500.0224,-187500.0224,-187500.0224,-178996.3235,-187500.0224,-185563.3331,-187500.0224,-187500.0224,0.338,-0.066,0.924,192,0,0,0,0,0,0,0,0,0,0
 2023-06-27 18:17:15.583,-187500.0224,-187500.0224,-187500.0224,-178264.4157,-187500.0224,-184236.8912,-187500.0224,-187500.0224,0.338,-0.066,0.924,192,0,0,0,0,0,0,0,0,0,0
 2023-06-27 18:17:15.583,-187500.0224,-187500.0224,-187500.0224,-178199.9979,-187500.0224,-184125.1325,-187500.0224,-187500.0224,0.338,-0.066,0.924,192,0,0,0,0,0,0,0,0,0,0
 2023-06-27 18:17:15.583,-187500.0224,-187500.0224,-187500.0224,-178891.1139,-187500.0224,-185384.9662,-187500.0224,-187500.0224,0.338,-0.066,0.924,192,0,0,0,0,0,0,0,0,0,0
 2023-06-27 18:17:15.583,-187500.0224,-187500.0224,-187500.0224,-179350.5987,-187500.0224,-186214.6853,-187500.0224,-187500.0224,0.338,-0.066,0.924,192,0,0,0,0,0,0,0,0,0,0
 2023-06-27 18:17:15.583,-187500.0224,-187500.0224,-187500.0224,-179001.6432,-187500.0224,-185573.0338,-187500.0224,-187500.0224,0.338,-0.066,0.924,192,0,0,0,0,0,0,0,0,0,0
 2023-06-27 18:17:15.583,-187500.0224,-187500.0224,-187500.0224,-178266.5167,-187500.0224,-184242.5238,-187500.0224,-187500.0224,0.338,-0.066,0.924,192,0,0,0,0,0,0,0,0,0,0
 2023-06-27 18:17:15.583,-187500.0224,-187500.0224,-187500.0224,-178197.5392,-187500.0224,-184122.4726,-187500.0224,-187500.0224,0.338,-0.066,0.924,192,0,0,0,0,0,0,0,0,0,0
 2023-06-27 18:17:15.583,-187500.0224,-187500.0224,-187500.0224,-178887.1353,-187500.0224,-185378.5736,-187500.0224,-187500.0224,0.342,-0.064,0.924,192,10,176,254,0,28,224,0,0,0,0
 2023-06-27 18:17:15.583,-187500.0224,-187500.0224,-187500.0224,-179350.0846,-187500.0224,-186215.4899,-187500.0224,-187500.0224,0.342,-0.064,0.924,192,0,0,0,0,0,0,0,0,0,0
 2023-06-27 18:17:15.583,-187500.0224,-187500.0224,-187500.0224,-179002.9396,-187500.0224,-185578.4205,-187500.0224,-187500.0224,0.342,-0.064,0.924,192,0,0,0,0,0,0,0,0,0,0
 2023-06-27 18:17:15.583,-187500.0224,-187500.0224,-187500.0224,-178269.1095,-187500.0224,-184248.2682,-187500.0224,-187500.0224,0.342,-0.064,0.924,192,0,0,0,0,0,0,0,0,0,0
 2023-06-27 18:17:15.583,-187500.0224,-187500.0224,-187500.0224,-178193.7171,-187500.0224,-184118.941,-187500.0224,-187500.0224,0.342,-0.064,0.924,192,0,0,0,0,0,0,0,0,0,0
 2023-06-27 18:17:15.583,-187500.0224,-187500.0224,-187500.0224,-178880.765,-187500.0224,-185371.801,-187500.0224,-187500.0224,0.342,-0.064,0.924,192,0,0,0,0,0,0,0,0,0,0
 2023-06-27 18:17:15.583,-187500.0224,-187500.0224,-187500.0224,-179348.7658,-187500.0224,-186216.8311,-187500.0224,-187500.0224,0.342,-0.064,0.924,192,0,0,0,0,0,0,0,0,0,0
 2023-06-27 18:17:15.584,-187500.0224,-187500.0224,-187500.0224,-179007.1194,-187500.0224,-185588.8141,-187500.0224,-187500.0224,0.342,-0.064,0.924,192,0,0,0,0,0,0,0,0,0,0
 2023-06-27 18:17:15.584,-187500.0224,-187500.0224,-187500.0224,-178271.5235,-187500.0224,-184255.3537,-187500.0224,-187500.0224,0.342,-0.064,0.924,192,0,0,0,0,0,0,0,0,0,0
 2023-06-27 18:17:15.584,-187500.0224,-187500.0224,-187500.0224,-178194.2759,-187500.0224,-184120.6398,-187500.0224,-187500.0224,0.342,-0.064,0.924,192,0,0,0,0,0,0,0,0,0,0
 2023-06-27 18:17:15.584,-187500.0224,-187500.0224,-187500.0224,-178881.145,-187500.0224,-185372.0245,-187500.0224,-187500.0224,0.344,-0.066,0.926,192,10,192,253,240,28,240,0,0,0,0
 2023-06-27 18:17:15.584,-187500.0224,-187500.0224,-187500.0224,-179350.4422,-187500.0224,-186221.0779,-187500.0224,-187500.0224,0.344,-0.066,0.926,192,0,0,0,0,0,0,0,0,0,0
 2023-06-27 18:17:15.584,-187500.0224,-187500.0224,-187500.0224,-179010.4051,-187500.0224,-185597.956,-187500.0224,-187500.0224,0.344,-0.066,0.926,192,0,0,0,0,0,0,0,0,0,0
 2023-06-27 18:17:15.584,-187500.0224,-187500.0224,-187500.0224,-178273.3116,-187500.0224,-184261.724,-187500.0224,-187500.0224,0.344,-0.066,0.926,192,0,0,0,0,0,0,0,0,0,0
 2023-06-27 18:17:15.584,-187500.0224,-187500.0224,-187500.0224,-178192.6666,-187500.0224,-184119.7904,-187500.0224,-187500.0224,0.344,-0.066,0.926,192,0,0,0,0,0,0,0,0,0,0
 2023-06-27 18:17:15.584,-187500.0224,-187500.0224,-187500.0224,-178876.1382,-187500.0224,-185365.4755,-187500.0224,-187500.0224,0.344,-0.066,0.926,192,0,0,0,0,0,0,0,0,0,0
 2023-06-27 18:17:15.584,-187500.0224,-187500.0224,-187500.0224,-179351.6716,-187500.0224,-186224.3636,-187500.0224,-187500.0224,0.344,-0.066,0.926,192,0,0,0,0,0,0,0,0,0,0
 2023-06-27 18:17:15.584,-187500.0224,-187500.0224,-187500.0224,-179019.0105,-187500.0224,-185611.9034,-187500.0224,-187500.0224,0.344,-0.066,0.926,192,0,0,0,0,0,0,0,0,0,0
 2023-06-27 18:17:15.584,-187500.0224,-187500.0224,-187500.0224,-178281.9618,-187500.0224,-184274.6209,-187500.0224,-187500.0224,0.344,-0.066,0.926,192,0,0,0,0,0,0,0,0,0,0
 2023-06-27 18:17:15.584,-187500.0224,-187500.0224,-187500.0224,-178197.5169,-187500.0224,-184124.7972,-187500.0224,-187500.0224,0.344,-0.066,0.926,192,0,0,0,0,0,0,0,0,0,0
 2023-06-27 18:17:15.584,-187500.0224,-187500.0224,-187500.0224,-178879.0439,-187500.0224,-185365.6543,-187500.0224,-187500.0224,0.342,-0.064,0.922,192,10,176,254,0,28,208,0,0,0,0
 2023-06-27 18:17:15.584,-187500.0224,-187500.0224,-187500.0224,-179358.6677,-187500.0224,-186232.6561,-187500.0224,-187500.0224,0.342,-0.064,0.922,192,0,0,0,0,0,0,0,0,0,0
 2023-06-27 18:17:15.584,-187500.0224,-187500.0224,-187500.0224,-179024.0397,-187500.0224,-185621.9841,-187500.0224,-187500.0224,0.342,-0.064,0.922,192,0,0,0,0,0,0,0,0,0,0
 2023-06-27 18:17:15.584,-187500.0224,-187500.0224,-187500.0224,-178280.9559,-187500.0224,-184277.7055,-187500.0224,-187500.0224,0.342,-0.064,0.922,192,0,0,0,0,0,0,0,0,0,0
 2023-06-27 18:17:15.584,-187500.0224,-187500.0224,-187500.0224,-178190.2749,-187500.0224,-184118.7175,-187500.0224,-187500.0224,0.342,-0.064,0.922,192,0,0,0,0,0,0,0,0,0,0
 2023-06-27 18:17:15.584,-187500.0224,-187500.0224,-187500.0224,-178868.181,-187500.0224,-185354.4784,-187500.0224,-187500.0224,0.342,-0.064,0.922,192,0,0,0,0,0,0,0,0,0,0
 2023-06-27 18:17:15.584,-187500.0224,-187500.0224,-187500.0224,-179352.3868,-187500.0224,-186227.6717,-187500.0224,-187500.0224,0.342,-0.064,0.922,192,0,0,0,0,0,0,0,0,0,0
 2023-06-27 18:17:15.584,-187500.0224,-187500.0224,-187500.0224,-179026.9901,-187500.0224,-185629.2707,-187500.0224,-187500.0224,0.342,-0.064,0.922,192,0,0,0,0,0,0,0,0,0,0
 2023-06-27 18:17:15.584,-187500.0224,-187500.0224,-187500.0224,-178285.9851,-187500.0224,-184286.5791,-187500.0224,-187500.0224,0.342,-0.064,0.922,192,0,0,0,0,0,0,0,0,0,0
 2023-06-27 18:17:15.584,-187500.0224,-187500.0224,-187500.0224,-178191.0796,-187500.0224,-184121.288,-187500.0224,-187500.0224,0.342,-0.064,0.922,192,0,0,0,0,0,0,0,0,0,0
 2023-06-27 18:17:15.584,-187500.0224,-187500.0224,-187500.0224,-178869.1645,-187500.0224,-185357.183,-187500.0224,-187500.0224,0.344,-0.072,0.926,192,10,192,253,192,28,240,0,0,0,0
 2023-06-27 18:17:15.584,-187500.0224,-187500.0224,-187500.0224,-179353.5044,-187500.0224,-186231.8291,-187500.0224,-187500.0224,0.344,-0.072,0.926,192,0,0,0,0,0,0,0,0,0,0
 2023-06-27 18:17:15.584,-187500.0224,-187500.0224,-187500.0224,-179030.7452,-187500.0224,-185639.0161,-187500.0224,-187500.0224,0.344,-0.072,0.926,192,0,0,0,0,0,0,0,0,0,0
 2023-06-27 18:17:15.584,-187500.0224,-187500.0224,-187500.0224,-178288.0414,-187500.0224,-184293.3293,-187500.0224,-187500.0224,0.344,-0.072,0.926,192,0,0,0,0,0,0,0,0,0,0
 2023-06-27 18:17:15.584,-187500.0224,-187500.0224,-187500.0224,-178187.4362,-187500.0224,-184117.3317,-187500.0224,-187500.0224,0.344,-0.072,0.926,192,0,0,0,0,0,0,0,0,0,0
 2023-06-27 18:17:15.584,-187500.0224,-187500.0224,-187500.0224,-178863.5095,-187500.0224,-185347.1917,-187500.0224,-187500.0224,0.344,-0.072,0.926,192,0,0,0,0,0,0,0,0,0,0
 2023-06-27 18:17:15.584,-187500.0224,-187500.0224,-187500.0224,-179353.9738,-187500.0224,-186232.7008,-187500.0224,-187500.0224,0.344,-0.072,0.926,192,0,0,0,0,0,0,0,0,0,0
 2023-06-27 18:17:15.584,-187500.0224,-187500.0224,-187500.0224,-179033.9192,-187500.0224,-185646.3028,-187500.0224,-187500.0224,0.344,-0.072,0.926,192,0,0,0,0,0,0,0,0,0,0
 2023-06-27 18:17:15.584,-187500.0224,-187500.0224,-187500.0224,-178291.1707,-187500.0224,-184300.3478,-187500.0224,-187500.0224,0.344,-0.072,0.926,192,0,0,0,0,0,0,0,0,0,0
 2023-06-27 18:17:15.584,-187500.0224,-187500.0224,-187500.0224,-178188.9785,-187500.0224,-184119.9692,-187500.0224,-187500.0224,0.344,-0.072,0.926,192,0,0,0,0,0,0,0,0,0,0
 2023-06-27 18:17:15.584,-187500.0224,-187500.0224,-187500.0224,-178860.7155,-187500.0224,-185344.0625,-187500.0224,-187500.0224,0.344,-0.072,0.918,192,10,192,253,192,28,176,0,0,0,0
 2023-06-27 18:17:15.584,-187500.0224,-187500.0224,-187500.0224,-179353.0127,-187500.0224,-186234.176,-187500.0224,-187500.0224,0.344,-0.072,0.918,192,0,0,0,0,0,0,0,0,0,0
 2023-06-27 18:17:15.584,-187500.0224,-187500.0224,-187500.0224,-179041.4293,-187500.0224,-185659.6244,-187500.0224,-187500.0224,0.344,-0.072,0.918,192,0,0,0,0,0,0,0,0,0,0
 2023-06-27 18:17:15.584,-187500.0224,-187500.0224,-187500.0224,-178299.4632,-187500.0224,-184313.6024,-187500.0224,-187500.0224,0.344,-0.072,0.918,192,0,0,0,0,0,0,0,0,0,0
 2023-06-27 18:17:15.584,-187500.0224,-187500.0224,-187500.0224,-178193.3371,-187500.0224,-184125.5571,-187500.0224,-187500.0224,0.344,-0.072,0.918,192,0,0,0,0,0,0,0,0,0,0
 2023-06-27 18:17:15.584,-187500.0224,-187500.0224,-187500.0224,-178861.8107,-187500.0224,-185344.5989,-187500.0224,-187500.0224,0.344,-0.072,0.918,192,0,0,0,0,0,0,0,0,0,0
 2023-06-27 18:17:15.584,-187500.0224,-187500.0224,-187500.0224,-179355.3596,-187500.0224,-186238.7358,-187500.0224,-187500.0224,0.344,-0.072,0.918,192,0,0,0,0,0,0,0,0,0,0
 2023-06-27 18:17:15.584,-187500.0224,-187500.0224,-187500.0224,-179042.9716,-187500.0224,-185666.1511,-187500.0224,-187500.0224,0.344,-0.072,0.918,192,0,0,0,0,0,0,0,0,0,0
 2023-06-27 18:17:15.584,-187500.0224,-187500.0224,-187500.0224,-178300.6031,-187500.0224,-184318.7209,-187500.0224,-187500.0224,0.344,-0.072,0.918,192,0,0,0,0,0,0,0,0,0,0
 2023-06-27 18:17:15.584,-187500.0224,-187500.0224,-187500.0224,-178192.1972,-187500.0224,-184125.9595,-187500.0224,-187500.0224,0.344,-0.072,0.918,192,0,0,0,0,0,0,0,0,0,0
 2023-06-27 18:17:15.584,-187500.0224,-187500.0224,-187500.0224,-178861.1402,-187500.0224,-185345.0907,-187500.0224,-187500.0224,0.344,-0.07,0.912,192,10,192,253,208,28,128,0,0,0,0
 2023-06-27 18:17:15.584,-187500.0224,-187500.0224,-187500.0224,-179359.2264,-187500.0224,-186245.2625,-187500.0224,-187500.0224,0.344,-0.07,0.912,192,0,0,0,0,0,0,0,0,0,0
 2023-06-27 18:17:15.584,-187500.0224,-187500.0224,-187500.0224,-179052.0911,-187500.0224,-185681.0821,-187500.0224,-187500.0224,0.344,-0.07,0.912,192,0,0,0,0,0,0,0,0,0,0
 2023-06-27 18:17:15.584,-187500.0224,-187500.0224,-187500.0224,-178304.6041,-187500.0224,-184327.7287,-187500.0224,-187500.0224,0.344,-0.07,0.912,192,0,0,0,0,0,0,0,0,0,0
 2023-06-27 18:17:15.584,-187500.0224,-187500.0224,-187500.0224,-178189.0903,-187500.0224,-184124.9536,-187500.0224,-187500.0224,0.344,-0.07,0.912,192,0,0,0,0,0,0,0,0,0,0
 2023-06-27 18:17:15.584,-187500.0224,-187500.0224,-187500.0224,-178853.8982,-187500.0224,-185337.9828,-187500.0224,-187500.0224,0.344,-0.07,0.912,192,0,0,0,0,0,0,0,0,0,0
 2023-06-27 18:17:15.584,-187500.0224,-187500.0224,-187500.0224,-179354.5549,-187500.0224,-186242.692,-187500.0224,-187500.0224,0.344,-0.07,0.912,192,0,0,0,0,0,0,0,0,0,0
 2023-06-27 18:17:15.584,-187500.0224,-187500.0224,-187500.0224,-179051.7111,-187500.0224,-185685.1501,-187500.0224,-187500.0224,0.344,-0.07,0.912,192,0,0,0,0,0,0,0,0,0,0
 2023-06-27 18:17:15.585,-187500.0224,-187500.0224,-187500.0224,-178307.8674,-187500.0224,-184335.0824,-187500.0224,-187500.0224,0.344,-0.07,0.912,192,0,0,0,0,0,0,0,0,0,0
 2023-06-27 18:17:15.585,-187500.0224,-187500.0224,-187500.0224,-178189.4926,-187500.0224,-184127.01,-187500.0224,-187500.0224,0.344,-0.07,0.912,192,0,0,0,0,0,0,0,0,0,0
 2023-06-27 18:17:15.585,-187500.0224,-187500.0224,-187500.0224,-178853.6076,-187500.0224,-185337.8711,-187500.0224,-187500.0224,0.346,-0.068,0.914,192,10,208,253,224,28,144,0,0,0,0
 2023-06-27 18:17:15.585,-187500.0224,-187500.0224,-187500.0224,-179356.0301,-187500.0224,-186246.2683,-187500.0224,-187500.0224,0.346,-0.068,0.914,192,0,0,0,0,0,0,0,0,0,0
 2023-06-27 18:17:15.585,-187500.0224,-187500.0224,-187500.0224,-179056.3827,-187500.0224,-185695.186,-187500.0224,-187500.0224,0.346,-0.068,0.914,192,0,0,0,0,0,0,0,0,0,0
 2023-06-27 18:17:15.585,-187500.0224,-187500.0224,-187500.0224,-178309.2309,-187500.0224,-184340.9609,-187500.0224,-187500.0224,0.346,-0.068,0.914,192,0,0,0,0,0,0,0,0,0,0
 2023-06-27 18:17:15.585,-187500.0224,-187500.0224,-187500.0224,-178183.5694,-187500.0224,-184121.1985,-187500.0224,-187500.0224,0.346,-0.068,0.914,192,0,0,0,0,0,0,0,0,0,0
 2023-06-27 18:17:15.585,-187500.0224,-187500.0224,-187500.0224,-178843.527,-187500.0224,-185324.0353,-187500.0224,-187500.0224,0.346,-0.068,0.914,192,0,0,0,0,0,0,0,0,0,0
 2023-06-27 18:17:15.585,-187500.0224,-187500.0224,-187500.0224,-179349.0564,-187500.0224,-186239.6969,-187500.0224,-187500.0224,0.346,-0.068,0.914,192,0,0,0,0,0,0,0,0,0,0
 2023-06-27 18:17:15.585,-187500.0224,-187500.0224,-187500.0224,-179054.5275,-187500.0224,-185697.5553,-187500.0224,-187500.0224,0.346,-0.068,0.914,192,0,0,0,0,0,0,0,0,0,0
 2023-06-27 18:17:15.585,-187500.0224,-187500.0224,-187500.0224,-178308.4262,-187500.0224,-184344.0007,-187500.0224,-187500.0224,0.346,-0.068,0.914,192,0,0,0,0,0,0,0,0,0,0
 2023-06-27 18:17:15.585,-187500.0224,-187500.0224,-187500.0224,-178182.72,-187500.0224,-184121.2433,-187500.0224,-187500.0224,0.346,-0.068,0.914,192,0,0,0,0,0,0,0,0,0,0
 2023-06-27 18:17:15.585,-187500.0224,-187500.0224,-187500.0224,-178841.0907,-187500.0224,-185320.9284,-187500.0224,-187500.0224,0.342,-0.066,0.916,192,10,176,253,240,28,160,0,0,0,0
 2023-06-27 18:17:15.585,-187500.0224,-187500.0224,-187500.0224,-179353.9961,-187500.0224,-186246.8494,-187500.0224,-187500.0224,0.342,-0.066,0.916,192,0,0,0,0,0,0,0,0,0,0
 2023-06-27 18:17:16.063,-187500.0224,-187500.0224,-187500.0224,-179062.5964,-187500.0224,-185711.5699,-187500.0224,-187500.0224,0.342,-0.066,0.916,192,0,0,0,0,0,0,0,0,0,0
 2023-06-27 18:17:16.063,-187500.0224,-187500.0224,-187500.0224,-178311.399,-187500.0224,-184352.1368,-187500.0224,-187500.0224,0.342,-0.066,0.916,192,0,0,0,0,0,0,0,0,0,0
 2023-06-27 18:17:16.063,-187500.0224,-187500.0224,-187500.0224,-178183.4353,-187500.0224,-184123.3443,-187500.0224,-187500.0224,0.342,-0.066,0.916,192,0,0,0,0,0,0,0,0,0,0
 2023-06-27 18:17:16.063,-187500.0224,-187500.0224,-187500.0224,-178840.5319,-187500.0224,-185319.6991,-187500.0224,-187500.0224,0.342,-0.066,0.916,192,0,0,0,0,0,0,0,0,0,0
 2023-06-27 18:17:16.063,-187500.0224,-187500.0224,-187500.0224,-179354.3091,-187500.0224,-186249.3975,-187500.0224,-187500.0224,0.342,-0.066,0.916,192,0,0,0,0,0,0,0,0,0,0
 2023-06-27 18:17:16.063,-187500.0224,-187500.0224,-187500.0224,-179067.5138,-187500.0224,-185721.6058,-187500.0224,-187500.0224,0.342,-0.066,0.916,192,0,0,0,0,0,0,0,0,0,0
 2023-06-27 18:17:16.063,-187500.0224,-187500.0224,-187500.0224,-178318.6633,-187500.0224,-184363.9385,-187500.0224,-187500.0224,0.342,-0.066,0.916,192,0,0,0,0,0,0,0,0,0,0
 2023-06-27 18:17:16.063,-187500.0224,-187500.0224,-187500.0224,-178185.6705,-187500.0224,-184129.044,-187500.0224,-187500.0224,0.342,-0.066,0.916,192,0,0,0,0,0,0,0,0,0,0
 2023-06-27 18:17:16.063,-187500.0224,-187500.0224,-187500.0224,-178842.7223,-187500.0224,-185326.8516,-187500.0224,-187500.0224,0.342,-0.07,0.922,192,10,176,253,208,28,208,0,0,0,0
 2023-06-27 18:17:16.063,-187500.0224,-187500.0224,-187500.0224,-179356.4772,-187500.0224,-186255.7901,-187500.0224,-187500.0224,0.342,-0.07,0.922,192,0,0,0,0,0,0,0,0,0,0
 2023-06-27 18:17:16.063,-187500.0224,-187500.0224,-187500.0224,-179076.7004,-187500.0224,-185737.3191,-187500.0224,-187500.0224,0.342,-0.07,0.922,192,0,0,0,0,0,0,0,0,0,0
 2023-06-27 18:17:16.063,-187500.0224,-187500.0224,-187500.0224,-178324.5195,-187500.0224,-184375.1591,-187500.0224,-187500.0224,0.342,-0.07,0.922,192,0,0,0,0,0,0,0,0,0,0
 2023-06-27 18:17:16.063,-187500.0224,-187500.0224,-187500.0224,-178182.4295,-187500.0224,-184125.5124,-187500.0224,-187500.0224,0.342,-0.07,0.922,192,0,0,0,0,0,0,0,0,0,0
 2023-06-27 18:17:16.063,-187500.0224,-187500.0224,-187500.0224,-178833.4687,-187500.0224,-185311.4289,-187500.0224,-187500.0224,0.342,-0.07,0.922,192,0,0,0,0,0,0,0,0,0,0
 2023-06-27 18:17:16.063,-187500.0224,-187500.0224,-187500.0224,-179355.1361,-187500.0224,-186254.3149,-187500.0224,-187500.0224,0.342,-0.07,0.922,192,0,0,0,0,0,0,0,0,0,0
 2023-06-27 18:17:16.063,-187500.0224,-187500.0224,-187500.0224,-179075.1134,-187500.0224,-185739.6884,-187500.0224,-187500.0224,0.342,-0.07,0.922,192,0,0,0,0,0,0,0,0,0,0
 2023-06-27 18:17:16.063,-187500.0224,-187500.0224,-187500.0224,-178324.2736,-187500.0224,-184378.9589,-187500.0224,-187500.0224,0.342,-0.07,0.922,192,0,0,0,0,0,0,0,0,0,0
 2023-06-27 18:17:16.063,-187500.0224,-187500.0224,-187500.0224,-178182.2059,-187500.0224,-184126.3618,-187500.0224,-187500.0224,0.342,-0.07,0.922,192,0,0,0,0,0,0,0,0,0,0
 2023-06-27 18:17:16.063,-187500.0224,-187500.0224,-187500.0224,-178832.4405,-187500.0224,-185309.3502,-187500.0224,-187500.0224,0.34,-0.062,0.916,192,10,160,254,16,28,160,0,0,0,0
 2023-06-27 18:17:16.063,-187500.0224,-187500.0224,-187500.0224,-179354.8455,-187500.0224,-186255.5219,-187500.0224,-187500.0224,0.34,-0.062,0.916,192,0,0,0,0,0,0,0,0,0,0
 2023-06-27 18:17:16.063,-187500.0224,-187500.0224,-187500.0224,-179079.5838,-187500.0224,-185749.7467,-187500.0224,-187500.0224,0.34,-0.062,0.916,192,0,0,0,0,0,0,0,0,0,0
 2023-06-27 18:17:16.063,-187500.0224,-187500.0224,-187500.0224,-178330.8674,-187500.0224,-184390.7382,-187500.0224,-187500.0224,0.34,-0.062,0.916,192,0,0,0,0,0,0,0,0,0,0
 2023-06-27 18:17:16.063,-187500.0224,-187500.0224,-187500.0224,-178184.0164,-187500.0224,-184129.9828,-187500.0224,-187500.0224,0.34,-0.062,0.916,192,0,0,0,0,0,0,0,0,0,0
 2023-06-27 18:17:16.063,-187500.0224,-187500.0224,-187500.0224,-178826.3832,-187500.0224,-185302.5106,-187500.0224,-187500.0224,0.34,-0.062,0.916,192,0,0,0,0,0,0,0,0,0,0
 2023-06-27 18:17:16.063,-187500.0224,-187500.0224,-187500.0224,-179354.2644,-187500.0224,-186256.7736,-187500.0224,-187500.0224,0.34,-0.062,0.916,192,0,0,0,0,0,0,0,0,0,0
 2023-06-27 18:17:16.063,-187500.0224,-187500.0224,-187500.0224,-179082.4671,-187500.0224,-185757.6368,-187500.0224,-187500.0224,0.34,-0.062,0.916,192,0,0,0,0,0,0,0,0,0,0
 2023-06-27 18:17:16.063,-187500.0224,-187500.0224,-187500.0224,-178333.572,-187500.0224,-184398.3155,-187500.0224,-187500.0224,0.34,-0.062,0.916,192,0,0,0,0,0,0,0,0,0,0
 2023-06-27 18:17:16.063,-187500.0224,-187500.0224,-187500.0224,-178183.3459,-187500.0224,-184130.9663,-187500.0224,-187500.0224,0.34,-0.062,0.916,192,0,0,0,0,0,0,0,0,0,0
 2023-06-27 18:17:16.063,-187500.0224,-187500.0224,-187500.0224,-178823.8798,-187500.0224,-185299.6272,-187500.0224,-187500.0224,0.338,-0.062,0.914,192,10,144,254,16,28,144,0,0,0,0
 2023-06-27 18:17:16.063,-187500.0224,-187500.0224,-187500.0224,-179353.2138,-187500.0224,-186258.3606,-187500.0224,-187500.0224,0.338,-0.062,0.914,192,0,0,0,0,0,0,0,0,0,0
 2023-06-27 18:17:16.063,-187500.0224,-187500.0224,-187500.0224,-179086.9822,-187500.0224,-185768.1868,-187500.0224,-187500.0224,0.338,-0.062,0.914,192,0,0,0,0,0,0,0,0,0,0
 2023-06-27 18:17:16.063,-187500.0224,-187500.0224,-187500.0224,-178338.3552,-187500.0224,-184408.8655,-187500.0224,-187500.0224,0.338,-0.062,0.914,192,0,0,0,0,0,0,0,0,0,0
 2023-06-27 18:17:16.063,-187500.0224,-187500.0224,-187500.0224,-178184.2399,-187500.0224,-184134.6096,-187500.0224,-187500.0224,0.338,-0.062,0.914,192,0,0,0,0,0,0,0,0,0,0
 2023-06-27 18:17:16.063,-187500.0224,-187500.0224,-187500.0224,-178822.494,-187500.0224,-185298.6214,-187500.0224,-187500.0224,0.338,-0.062,0.914,192,0,0,0,0,0,0,0,0,0,0
 2023-06-27 18:17:16.063,-187500.0224,-187500.0224,-187500.0224,-179353.4821,-187500.0224,-186261.3334,-187500.0224,-187500.0224,0.338,-0.062,0.914,192,0,0,0,0,0,0,0,0,0,0
 2023-06-27 18:17:16.063,-187500.0224,-187500.0224,-187500.0224,-179092.9054,-187500.0224,-185779.5639,-187500.0224,-187500.0224,0.338,-0.062,0.914,192,0,0,0,0,0,0,0,0,0,0
 2023-06-27 18:17:16.063,-187500.0224,-187500.0224,-187500.0224,-178344.1667,-187500.0224,-184419.7508,-187500.0224,-187500.0224,0.338,-0.062,0.914,192,0,0,0,0,0,0,0,0,0,0
 2023-06-27 18:17:16.063,-187500.0224,-187500.0224,-187500.0224,-178183.1,-187500.0224,-184135.1013,-187500.0224,-187500.0224,0.338,-0.062,0.914,192,0,0,0,0,0,0,0,0,0,0
 2023-06-27 18:17:16.063,-187500.0224,-187500.0224,-187500.0224,-178817.8448,-187500.0224,-185293.2346,-187500.0224,-187500.0224,0.338,-0.064,0.918,192,10,144,254,0,28,176,0,0,0,0
 2023-06-27 18:17:16.063,-187500.0224,-187500.0224,-187500.0224,-179354.622,-187500.0224,-186264.2615,-187500.0224,-187500.0224,0.338,-0.064,0.918,192,0,0,0,0,0,0,0,0,0,0
 2023-06-27 18:17:16.063,-187500.0224,-187500.0224,-187500.0224,-179096.0794,-187500.0224,-185788.1469,-187500.0224,-187500.0224,0.338,-0.064,0.918,192,0,0,0,0,0,0,0,0,0,0
 2023-06-27 18:17:16.063,-187500.0224,-187500.0224,-187500.0224,-178347.9441,-187500.0224,-184429.4068,-187500.0224,-187500.0224,0.338,-0.064,0.918,192,0,0,0,0,0,0,0,0,0,0
 2023-06-27 18:17:16.063,-187500.0224,-187500.0224,-187500.0224,-178185.8046,-187500.0224,-184140.6222,-187500.0224,-187500.0224,0.338,-0.064,0.918,192,0,0,0,0,0,0,0,0,0,0
 2023-06-27 18:17:16.063,-187500.0224,-187500.0224,-187500.0224,-178820.2141,-187500.0224,-185296.0733,-187500.0224,-187500.0224,0.338,-0.064,0.918,192,0,0,0,0,0,0,0,0,0,0
 2023-06-27 18:17:16.063,-187500.0224,-187500.0224,-187500.0224,-179359.7405,-187500.0224,-186272.6881,-187500.0224,-187500.0224,0.338,-0.064,0.918,192,0,0,0,0,0,0,0,0,0,0
 2023-06-27 18:17:16.063,-187500.0224,-187500.0224,-187500.0224,-179102.3155,-187500.0224,-185800.5298,-187500.0224,-187500.0224,0.338,-0.064,0.918,192,0,0,0,0,0,0,0,0,0,0
 2023-06-27 18:17:16.063,-187500.0224,-187500.0224,-187500.0224,-178351.6769,-187500.0224,-184438.5263,-187500.0224,-187500.0224,0.338,-0.064,0.918,192,0,0,0,0,0,0,0,0,0,0
 2023-06-27 18:17:16.063,-187500.0224,-187500.0224,-187500.0224,-178185.1117,-187500.0224,-184142.5445,-187500.0224,-187500.0224,0.338,-0.064,0.918,192,0,0,0,0,0,0,0,0,0,0
 2023-06-27 18:17:16.063,-187500.0224,-187500.0224,-187500.0224,-178816.012,-187500.0224,-185292.4747,-187500.0224,-187500.0224,0.344,-0.066,0.92,192,10,192,253,240,28,192,0,0,0,0
 2023-06-27 18:17:16.063,-187500.0224,-187500.0224,-187500.0224,-179358.0195,-187500.0224,-186273.6939,-187500.0224,-187500.0224,0.344,-0.066,0.92,192,0,0,0,0,0,0,0,0,0,0
 2023-06-27 18:17:16.063,-187500.0224,-187500.0224,-187500.0224,-179106.4729,-187500.0224,-185810.5434,-187500.0224,-187500.0224,0.344,-0.066,0.92,192,0,0,0,0,0,0,0,0,0,0
 2023-06-27 18:17:16.063,-187500.0224,-187500.0224,-187500.0224,-178354.1803,-187500.0224,-184446.1035,-187500.0224,-187500.0224,0.344,-0.066,0.92,192,0,0,0,0,0,0,0,0,0,0
 2023-06-27 18:17:16.063,-187500.0224,-187500.0224,-187500.0224,-178183.7929,-187500.0224,-184142.9915,-187500.0224,-187500.0224,0.344,-0.066,0.92,192,0,0,0,0,0,0,0,0,0,0
 2023-06-27 18:17:16.063,-187500.0224,-187500.0224,-187500.0224,-178810.6476,-187500.0224,-185286.1268,-187500.0224,-187500.0224,0.344,-0.066,0.92,192,0,0,0,0,0,0,0,0,0,0
 2023-06-27 18:17:16.063,-187500.0224,-187500.0224,-187500.0224,-179354.4432,-187500.0224,-186271.6599,-187500.0224,-187500.0224,0.344,-0.066,0.92,192,0,0,0,0,0,0,0,0,0,0
 2023-06-27 18:17:16.063,-187500.0224,-187500.0224,-187500.0224,-179107.1882,-187500.0224,-185815.5949,-187500.0224,-187500.0224,0.344,-0.066,0.92,192,0,0,0,0,0,0,0,0,0,0
 2023-06-27 18:17:16.063,-187500.0224,-187500.0224,-187500.0224,-178355.9237,-187500.0224,-184450.7974,-187500.0224,-187500.0224,0.344,-0.066,0.92,192,0,0,0,0,0,0,0,0,0,0
 2023-06-27 18:17:16.063,-187500.0224,-187500.0224,-187500.0224,-178181.6471,-187500.0224,-184139.8399,-187500.0224,-187500.0224,0.344,-0.066,0.92,192,0,0,0,0,0,0,0,0,0,0
 2023-06-27 18:17:16.063,-187500.0224,-187500.0224,-187500.0224,-178807.3842,-187500.0224,-185281.7682,-187500.0224,-187500.0224,0.344,-0.066,0.92,192,0,0,0,0,0,0,0,0,0,0
 2023-06-27 18:17:16.063,-187500.0224,-187500.0224,-187500.0224,-179355.6949,-187500.0224,-186273.4927,-187500.0224,-187500.0224,0.342,-0.068,0.924,192,10,176,253,224,28,224,0,0,0,0
 2023-06-27 18:17:16.063,-187500.0224,-187500.0224,-187500.0224,-179112.2397,-187500.0224,-185823.9991,-187500.0224,-187500.0224,0.342,-0.068,0.924,192,0,0,0,0,0,0,0,0,0,0
 2023-06-27 18:17:16.063,-187500.0224,-187500.0224,-187500.0224,-178356.6166,-187500.0224,-184454.7313,-187500.0224,-187500.0224,0.342,-0.068,0.924,192,0,0,0,0,0,0,0,0,0,0
 2023-06-27 18:17:16.063,-187500.0224,-187500.0224,-187500.0224,-178177.5121,-187500.0224,-184134.5872,-187500.0224,-187500.0224,0.342,-0.068,0.924,192,0,0,0,0,0,0,0,0,0,0
 2023-06-27 18:17:16.063,-187500.0224,-187500.0224,-187500.0224,-178798.6894,-187500.0224,-185267.4184,-187500.0224,-187500.0224,0.342,-0.068,0.924,192,0,0,0,0,0,0,0,0,0,0
 2023-06-27 18:17:16.063,-187500.0224,-187500.0224,-187500.0224,-179351.8951,-187500.0224,-186269.0224,-187500.0224,-187500.0224,0.342,-0.068,0.924,192,0,0,0,0,0,0,0,0,0,0
 2023-06-27 18:17:16.063,-187500.0224,-187500.0224,-187500.0224,-179116.9112,-187500.0224,-185832.4034,-187500.0224,-187500.0224,0.342,-0.068,0.924,192,0,0,0,0,0,0,0,0,0,0
 2023-06-27 18:17:16.063,-187500.0224,-187500.0224,-187500.0224,-178365.2667,-187500.0224,-184467.4718,-187500.0224,-187500.0224,0.342,-0.068,0.924,192,0,0,0,0,0,0,0,0,0,0
 2023-06-27 18:17:16.063,-187500.0224,-187500.0224,-187500.0224,-178181.6024,-187500.0224,-184140.1305,-187500.0224,-187500.0224,0.342,-0.068,0.924,192,0,0,0,0,0,0,0,0,0,0
 2023-06-27 18:17:16.064,-187500.0224,-187500.0224,-187500.0224,-178799.3376,-187500.0224,-185267.4631,-187500.0224,-187500.0224,0.342,-0.068,0.924,192,0,0,0,0,0,0,0,0,0,0
 2023-06-27 18:17:16.064,-187500.0224,-187500.0224,-187500.0224,-179354.3091,-187500.0224,-186273.2692,-187500.0224,-187500.0224,0.346,-0.068,0.928,192,10,208,253,224,29,0,0,0,0,0
 2023-06-27 18:17:16.064,-187500.0224,-187500.0224,-187500.0224,-179117.4923,-187500.0224,-185837.7455,-187500.0224,-187500.0224,0.346,-0.068,0.928,192,0,0,0,0,0,0,0,0,0,0
 2023-06-27 18:17:16.064,-187500.0224,-187500.0224,-187500.0224,-178363.6574,-187500.0224,-184470.0422,-187500.0224,-187500.0224,0.346,-0.068,0.928,192,0,0,0,0,0,0,0,0,0,0
 2023-06-27 18:17:16.064,-187500.0224,-187500.0224,-187500.0224,-178175.3216,-187500.0224,-184134.6096,-187500.0224,-187500.0224,0.346,-0.068,0.928,192,0,0,0,0,0,0,0,0,0,0
 2023-06-27 18:17:16.064,-187500.0224,-187500.0224,-187500.0224,-178791.2463,-187500.0224,-185257.5389,-187500.0224,-187500.0224,0.346,-0.068,0.928,192,0,0,0,0,0,0,0,0,0,0
 2023-06-27 18:17:16.064,-187500.0224,-187500.0224,-187500.0224,-179353.9067,-187500.0224,-186273.381,-187500.0224,-187500.0224,0.346,-0.068,0.928,192,0,0,0,0,0,0,0,0,0,0
 2023-06-27 18:17:16.064,-187500.0224,-187500.0224,-187500.0224,-179123.5944,-187500.0224,-185847.4685,-187500.0224,-187500.0224,0.346,-0.068,0.928,192,0,0,0,0,0,0,0,0,0,0
 2023-06-27 18:17:16.064,-187500.0224,-187500.0224,-187500.0224,-178371.2346,-187500.0224,-184480.3017,-187500.0224,-187500.0224,0.346,-0.068,0.928,192,0,0,0,0,0,0,0,0,0,0
 2023-06-27 18:17:16.064,-187500.0224,-187500.0224,-187500.0224,-178177.4897,-187500.0224,-184135.9507,-187500.0224,-187500.0224,0.346,-0.068,0.928,192,0,0,0,0,0,0,0,0,0,0
 2023-06-27 18:17:16.064,-187500.0224,-187500.0224,-187500.0224,-178787.5135,-187500.0224,-185250.4981,-187500.0224,-187500.0224,0.346,-0.068,0.928,192,0,0,0,0,0,0,0,0,0,0
 2023-06-27 18:17:16.064,-187500.0224,-187500.0224,-187500.0224,-179351.0681,-187500.0224,-186270.3188,-187500.0224,-187500.0224,0.342,-0.072,0.924,192,10,176,253,192,28,224,0,0,0,0
 2023-06-27 18:17:16.064,-187500.0224,-187500.0224,-187500.0224,-179125.5837,-187500.0224,-185852.5647,-187500.0224,-187500.0224,0.342,-0.072,0.924,192,0,0,0,0,0,0,0,0,0,0
 2023-06-27 18:17:16.064,-187500.0224,-187500.0224,-187500.0224,-178369.5136,-187500.0224,-184481.3522,-187500.0224,-187500.0224,0.342,-0.072,0.924,192,0,0,0,0,0,0,0,0,0,0
 2023-06-27 18:17:16.064,-187500.0224,-187500.0224,-187500.0224,-178174.5616,-187500.0224,-184132.5979,-187500.0224,-187500.0224,0.342,-0.072,0.924,192,0,0,0,0,0,0,0,0,0,0
 2023-06-27 18:17:16.064,-187500.0224,-187500.0224,-187500.0224,-178785.8819,-187500.0224,-185245.8266,-187500.0224,-187500.0224,0.342,-0.072,0.924,192,0,0,0,0,0,0,0,0,0,0
 2023-06-27 18:17:16.064,-187500.0224,-187500.0224,-187500.0224,-179350.4646,-187500.0224,-186269.6929,-187500.0224,-187500.0224,0.342,-0.072,0.924,192,0,0,0,0,0,0,0,0,0,0
 2023-06-27 18:17:16.064,-187500.0224,-187500.0224,-187500.0224,-179124.6225,-187500.0224,-185854.6881,-187500.0224,-187500.0224,0.342,-0.072,0.924,192,0,0,0,0,0,0,0,0,0,0
 2023-06-27 18:17:16.064,-187500.0224,-187500.0224,-187500.0224,-178371.7487,-187500.0224,-184486.9625,-187500.0224,-187500.0224,0.342,-0.072,0.924,192,0,0,0,0,0,0,0,0,0,0
 2023-06-27 18:17:16.064,-187500.0224,-187500.0224,-187500.0224,-178172.5053,-187500.0224,-184131.1451,-187500.0224,-187500.0224,0.342,-0.072,0.924,192,0,0,0,0,0,0,0,0,0,0
 2023-06-27 18:17:16.064,-187500.0224,-187500.0224,-187500.0224,-178777.567,-187500.0224,-185235.6118,-187500.0224,-187500.0224,0.342,-0.072,0.924,192,0,0,0,0,0,0,0,0,0,0
 2023-06-27 18:17:16.064,-187500.0224,-187500.0224,-187500.0224,-179346.2401,-187500.0224,-186265.8931,-187500.0224,-187500.0224,0.35,-0.066,0.928,192,10,240,253,240,29,0,0,0,0,0
 2023-06-27 18:17:16.064,-187500.0224,-187500.0224,-187500.0224,-179128.7129,-187500.0224,-185862.623,-187500.0224,-187500.0224,0.35,-0.066,0.928,192,0,0,0,0,0,0,0,0,0,0
 2023-06-27 18:17:16.064,-187500.0224,-187500.0224,-187500.0224,-178376.0179,-187500.0224,-184495.255,-187500.0224,-187500.0224,0.35,-0.066,0.928,192,0,0,0,0,0,0,0,0,0,0
 2023-06-27 18:17:16.064,-187500.0224,-187500.0224,-187500.0224,-178172.3488,-187500.0224,-184132.1509,-187500.0224,-187500.0224,0.35,-0.066,0.928,192,0,0,0,0,0,0,0,0,0,0
 2023-06-27 18:17:16.064,-187500.0224,-187500.0224,-187500.0224,-178777.0082,-187500.0224,-185234.159,-187500.0224,-187500.0224,0.35,-0.066,0.928,192,0,0,0,0,0,0,0,0,0,0
 2023-06-27 18:17:16.064,-187500.0224,-187500.0224,-187500.0224,-179351.5598,-187500.0224,-186272.7551,-187500.0224,-187500.0224,0.35,-0.066,0.928,192,0,0,0,0,0,0,0,0,0,0
 2023-06-27 18:17:16.064,-187500.0224,-187500.0224,-187500.0224,-179135.3514,-187500.0224,-185874.2459,-187500.0224,-187500.0224,0.35,-0.066,0.928,192,0,0,0,0,0,0,0,0,0,0
 2023-06-27 18:17:16.064,-187500.0224,-187500.0224,-187500.0224,-178381.6729,-187500.0224,-184505.4697,-187500.0224,-187500.0224,0.35,-0.066,0.928,192,0,0,0,0,0,0,0,0,0,0
 2023-06-27 18:17:16.064,-187500.0224,-187500.0224,-187500.0224,-178175.3887,-187500.0224,-184135.9731,-187500.0224,-187500.0224,0.35,-0.066,0.928,192,0,0,0,0,0,0,0,0,0,0
 2023-06-27 18:17:16.064,-187500.0224,-187500.0224,-187500.0224,-178775.7789,-187500.0224,-185231.6556,-187500.0224,-187500.0224,0.35,-0.066,0.928,192,0,0,0,0,0,0,0,0,0,0
 2023-06-27 18:17:16.064,-187500.0224,-187500.0224,-187500.0224,-179351.3139,-187500.0224,-186274.0292,-187500.0224,-187500.0224,0.35,-0.066,0.926,192,10,240,253,240,28,240,0,0,0,0
 2023-06-27 18:17:16.064,-187500.0224,-187500.0224,-187500.0224,-179138.7265,-187500.0224,-185882.6278,-187500.0224,-187500.0224,0.35,-0.066,0.926,192,0,0,0,0,0,0,0,0,0,0
 2023-06-27 18:17:16.064,-187500.0224,-187500.0224,-187500.0224,-178382.3211,-187500.0224,-184510.9012,-187500.0224,-187500.0224,0.35,-0.066,0.926,192,0,0,0,0,0,0,0,0,0,0
 2023-06-27 18:17:16.064,-187500.0224,-187500.0224,-187500.0224,-178169.4207,-187500.0224,-184131.3015,-187500.0224,-187500.0224,0.35,-0.066,0.926,192,0,0,0,0,0,0,0,0,0,0
 2023-06-27 18:17:16.064,-187500.0224,-187500.0224,-187500.0224,-178769.9674,-187500.0224,-185224.123,-187500.0224,-187500.0224,0.35,-0.066,0.926,192,0,0,0,0,0,0,0,0,0,0
 2023-06-27 18:17:16.064,-187500.0224,-187500.0224,-187500.0224,-179350.7551,-187500.0224,-186274.4539,-187500.0224,-187500.0224,0.35,-0.066,0.926,192,0,0,0,0,0,0,0,0,0,0
 2023-06-27 18:17:16.064,-187500.0224,-187500.0224,-187500.0224,-179142.3922,-187500.0224,-185890.4285,-187500.0224,-187500.0224,0.35,-0.066,0.926,192,0,0,0,0,0,0,0,0,0,0
 2023-06-27 18:17:16.064,-187500.0224,-187500.0224,-187500.0224,-178386.6797,-187500.0224,-184519.3725,-187500.0224,-187500.0224,0.35,-0.066,0.926,192,0,0,0,0,0,0,0,0,0,0
 2023-06-27 18:17:16.064,-187500.0224,-187500.0224,-187500.0224,-178168.929,-187500.0224,-184131.6368,-187500.0224,-187500.0224,0.35,-0.066,0.926,192,0,0,0,0,0,0,0,0,0,0
 2023-06-27 18:17:16.064,-187500.0224,-187500.0224,-187500.0224,-178761.5184,-187500.0224,-185213.4836,-187500.0224,-187500.0224,0.35,-0.066,0.926,192,0,0,0,0,0,0,0,0,0,0
 2023-06-27 18:17:16.064,-187500.0224,-187500.0224,-187500.0224,-179345.0331,-187500.0224,-186269.0224,-187500.0224,-187500.0224,0.342,-0.068,0.924,192,10,176,253,224,28,224,0,0,0,0
 2023-06-27 18:17:16.064,-187500.0224,-187500.0224,-187500.0224,-179141.9898,-187500.0224,-185893.8931,-187500.0224,-187500.0224,0.342,-0.068,0.924,192,0,0,0,0,0,0,0,0,0,0
 2023-06-27 18:17:16.064,-187500.0224,-187500.0224,-187500.0224,-178389.6525,-187500.0224,-184526.5027,-187500.0224,-187500.0224,0.342,-0.068,0.924,192,0,0,0,0,0,0,0,0,0,0
 2023-06-27 18:17:16.064,-187500.0224,-187500.0224,-187500.0224,-178168.0349,-187500.0224,-184131.7039,-187500.0224,-187500.0224,0.342,-0.068,0.924,192,0,0,0,0,0,0,0,0,0,0
 2023-06-27 18:17:16.064,-187500.0224,-187500.0224,-187500.0224,-178760.3785,-187500.0224,-185210.712,-187500.0224,-187500.0224,0.342,-0.068,0.924,192,0,0,0,0,0,0,0,0,0,0
 2023-06-27 18:17:16.064,-187500.0224,-187500.0224,-187500.0224,-179347.6929,-187500.0224,-186272.5987,-187500.0224,-187500.0224,0.342,-0.068,0.924,192,0,0,0,0,0,0,0,0,0,0
 2023-06-27 18:17:16.064,-187500.0224,-187500.0224,-187500.0224,-179150.2376,-187500.0224,-185906.723,-187500.0224,-187500.0224,0.342,-0.068,0.924,192,0,0,0,0,0,0,0,0,0,0
 2023-06-27 18:17:16.064,-187500.0224,-187500.0224,-187500.0224,-178397.3638,-187500.0224,-184538.7291,-187500.0224,-187500.0224,0.342,-0.068,0.924,192,0,0,0,0,0,0,0,0,0,0
 2023-06-27 18:17:16.064,-187500.0224,-187500.0224,-187500.0224,-178171.4995,-187500.0224,-184135.9507,-187500.0224,-187500.0224,0.342,-0.068,0.924,192,0,0,0,0,0,0,0,0,0,0
 2023-06-27 18:17:16.064,-187500.0224,-187500.0224,-187500.0224,-178760.3115,-187500.0224,-185208.5662,-187500.0224,-187500.0224,0.342,-0.068,0.924,192,0,0,0,0,0,0,0,0,0,0
 2023-06-27 18:17:16.064,-187500.0224,-187500.0224,-187500.0224,-179346.5083,-187500.0224,-186272.2634,-187500.0224,-187500.0224,0.342,-0.068,0.92,192,10,176,253,224,28,192,0,0,0,0
 2023-06-27 18:17:16.543,-187500.0224,-187500.0224,-187500.0224,-179151.1094,-187500.0224,-185912.1768,-187500.0224,-187500.0224,0.342,-0.068,0.92,192,0,0,0,0,0,0,0,0,0,0
 2023-06-27 18:17:16.543,-187500.0224,-187500.0224,-187500.0224,-178399.8449,-187500.0224,-184546.1946,-187500.0224,-187500.0224,0.342,-0.068,0.92,192,0,0,0,0,0,0,0,0,0,0
 2023-06-27 18:17:16.543,-187500.0224,-187500.0224,-187500.0224,-178167.6326,-187500.0224,-184133.6932,-187500.0224,-187500.0224,0.342,-0.068,0.92,192,0,0,0,0,0,0,0,0,0,0
 2023-06-27 18:17:16.543,-187500.0224,-187500.0224,-187500.0224,-178752.5107,-187500.0224,-185199.9608,-187500.0224,-187500.0224,0.342,-0.068,0.92,192,0,0,0,0,0,0,0,0,0,0
 2023-06-27 18:17:16.543,-187500.0224,-187500.0224,-187500.0224,-179346.5083,-187500.0224,-186274.0068,-187500.0224,-187500.0224,0.342,-0.068,0.92,192,0,0,0,0,0,0,0,0,0,0
 2023-06-27 18:17:16.543,-187500.0224,-187500.0224,-187500.0224,-179157.0326,-187500.0224,-185923.2409,-187500.0224,-187500.0224,0.342,-0.068,0.92,192,0,0,0,0,0,0,0,0,0,0
 2023-06-27 18:17:16.543,-187500.0224,-187500.0224,-187500.0224,-178402.5047,-187500.0224,-184553.7942,-187500.0224,-187500.0224,0.342,-0.068,0.92,192,0,0,0,0,0,0,0,0,0,0
 2023-06-27 18:17:16.543,-187500.0224,-187500.0224,-187500.0224,-178171.2312,-187500.0224,-184139.1246,-187500.0224,-187500.0224,0.342,-0.068,0.92,192,0,0,0,0,0,0,0,0,0,0
 2023-06-27 18:17:16.543,-187500.0224,-187500.0224,-187500.0224,-178756.3328,-187500.0224,-185203.1124,-187500.0224,-187500.0224,0.342,-0.068,0.92,192,0,0,0,0,0,0,0,0,0,0
 2023-06-27 18:17:16.543,-187500.0224,-187500.0224,-187500.0224,-179349.8834,-187500.0224,-186278.7901,-187500.0224,-187500.0224,0.344,-0.066,0.928,192,10,192,253,240,29,0,0,0,0,0
 2023-06-27 18:17:16.543,-187500.0224,-187500.0224,-187500.0224,-179161.9723,-187500.0224,-185933.0757,-187500.0224,-187500.0224,0.344,-0.066,0.928,192,0,0,0,0,0,0,0,0,0,0
 2023-06-27 18:17:16.543,-187500.0224,-187500.0224,-187500.0224,-178408.7632,-187500.0224,-184564.7689,-187500.0224,-187500.0224,0.344,-0.066,0.928,192,0,0,0,0,0,0,0,0,0,0
 2023-06-27 18:17:16.543,-187500.0224,-187500.0224,-187500.0224,-178171.2089,-187500.0224,-184139.9517,-187500.0224,-187500.0224,0.344,-0.066,0.928,192,0,0,0,0,0,0,0,0,0,0
 2023-06-27 18:17:16.543,-187500.0224,-187500.0224,-187500.0224,-178749.5156,-187500.0224,-185194.0152,-187500.0224,-187500.0224,0.344,-0.066,0.928,192,0,0,0,0,0,0,0,0,0,0
 2023-06-27 18:17:16.543,-187500.0224,-187500.0224,-187500.0224,-179347.5588,-187500.0224,-186277.1808,-187500.0224,-187500.0224,0.344,-0.066,0.928,192,0,0,0,0,0,0,0,0,0,0
 2023-06-27 18:17:16.543,-187500.0224,-187500.0224,-187500.0224,-179166.5097,-187500.0224,-185941.8152,-187500.0224,-187500.0224,0.344,-0.066,0.928,192,0,0,0,0,0,0,0,0,0,0
 2023-06-27 18:17:16.543,-187500.0224,-187500.0224,-187500.0224,-178413.77,-187500.0224,-184573.9778,-187500.0224,-187500.0224,0.344,-0.066,0.928,192,0,0,0,0,0,0,0,0,0,0
 2023-06-27 18:17:16.543,-187500.0224,-187500.0224,-187500.0224,-178171.5889,-187500.0224,-184141.5833,-187500.0224,-187500.0224,0.344,-0.066,0.928,192,0,0,0,0,0,0,0,0,0,0
 2023-06-27 18:17:16.543,-187500.0224,-187500.0224,-187500.0224,-178749.3367,-187500.0224,-185192.9647,-187500.0224,-187500.0224,0.344,-0.066,0.928,192,0,0,0,0,0,0,0,0,0,0
 2023-06-27 18:17:16.543,-187500.0224,-187500.0224,-187500.0224,-179349.1905,-187500.0224,-186279.9747,-187500.0224,-187500.0224,0.342,-0.07,0.922,192,10,176,253,208,28,208,0,0,0,0
 2023-06-27 18:17:16.543,-187500.0224,-187500.0224,-187500.0224,-179171.2259,-187500.0224,-185951.3594,-187500.0224,-187500.0224,0.342,-0.07,0.922,192,0,0,0,0,0,0,0,0,0,0
 2023-06-27 18:17:16.543,-187500.0224,-187500.0224,-187500.0224,-178416.2287,-187500.0224,-184581.108,-187500.0224,-187500.0224,0.342,-0.07,0.922,192,0,0,0,0,0,0,0,0,0,0
 2023-06-27 18:17:16.543,-187500.0224,-187500.0224,-187500.0224,-178170.0466,-187500.0224,-184141.5386,-187500.0224,-187500.0224,0.342,-0.07,0.922,192,0,0,0,0,0,0,0,0,0,0
 2023-06-27 18:17:16.543,-187500.0224,-187500.0224,-187500.0224,-178745.0229,-187500.0224,-185187.6673,-187500.0224,-187500.0224,0.342,-0.07,0.922,192,0,0,0,0,0,0,0,0,0,0
 2023-06-27 18:17:16.543,-187500.0224,-187500.0224,-187500.0224,-179348.2517,-187500.0224,-186280.1312,-187500.0224,-187500.0224,0.342,-0.07,0.922,192,0,0,0,0,0,0,0,0,0,0
 2023-06-27 18:17:16.543,-187500.0224,-187500.0224,-187500.0224,-179172.7235,-187500.0224,-185956.6344,-187500.0224,-187500.0224,0.342,-0.07,0.922,192,0,0,0,0,0,0,0,0,0,0
 2023-06-27 18:17:16.543,-187500.0224,-187500.0224,-187500.0224,-178420.2967,-187500.0224,-184588.8194,-187500.0224,-187500.0224,0.342,-0.07,0.922,192,0,0,0,0,0,0,0,0,0,0
 2023-06-27 18:17:16.543,-187500.0224,-187500.0224,-187500.0224,-178172.7288,-187500.0224,-184144.3103,-187500.0224,-187500.0224,0.342,-0.07,0.922,192,0,0,0,0,0,0,0,0,0,0
 2023-06-27 18:17:16.543,-187500.0224,-187500.0224,-187500.0224,-178742.8771,-187500.0224,-185183.6217,-187500.0224,-187500.0224,0.342,-0.07,0.922,192,0,0,0,0,0,0,0,0,0,0
 2023-06-27 18:17:16.543,-187500.0224,-187500.0224,-187500.0224,-179346.1954,-187500.0224,-186278.4101,-187500.0224,-187500.0224,0.346,-0.066,0.926,192,10,208,253,240,28,240,0,0,0,0
 2023-06-27 18:17:16.543,-187500.0224,-187500.0224,-187500.0224,-179177.1938,-187500.0224,-185965.1504,-187500.0224,-187500.0224,0.346,-0.066,0.926,192,0,0,0,0,0,0,0,0,0,0
 2023-06-27 18:17:16.543,-187500.0224,-187500.0224,-187500.0224,-178424.0518,-187500.0224,-184597.2237,-187500.0224,-187500.0224,0.346,-0.066,0.926,192,0,0,0,0,0,0,0,0,0,0
 2023-06-27 18:17:16.543,-187500.0224,-187500.0224,-187500.0224,-178169.5772,-187500.0224,-184142.2539,-187500.0224,-187500.0224,0.346,-0.066,0.926,192,0,0,0,0,0,0,0,0,0,0
 2023-06-27 18:17:16.543,-187500.0224,-187500.0224,-187500.0224,-178738.3844,-187500.0224,-185177.4749,-187500.0224,-187500.0224,0.346,-0.066,0.926,192,0,0,0,0,0,0,0,0,0,0
 2023-06-27 18:17:16.543,-187500.0224,-187500.0224,-187500.0224,-179345.1672,-187500.0224,-186278.4101,-187500.0224,-187500.0224,0.346,-0.066,0.926,192,0,0,0,0,0,0,0,0,0,0
 2023-06-27 18:17:16.543,-187500.0224,-187500.0224,-187500.0224,-179178.6244,-187500.0224,-185970.6713,-187500.0224,-187500.0224,0.346,-0.066,0.926,192,0,0,0,0,0,0,0,0,0,0
 2023-06-27 18:17:16.543,-187500.0224,-187500.0224,-187500.0224,-178425.9517,-187500.0224,-184602.6328,-187500.0224,-187500.0224,0.346,-0.066,0.926,192,0,0,0,0,0,0,0,0,0,0
 2023-06-27 18:17:16.543,-187500.0224,-187500.0224,-187500.0224,-178169.4431,-187500.0224,-184142.5445,-187500.0224,-187500.0224,0.346,-0.066,0.926,192,0,0,0,0,0,0,0,0,0,0
 2023-06-27 18:17:16.543,-187500.0224,-187500.0224,-187500.0224,-178733.9587,-187500.0224,-185172.1552,-187500.0224,-187500.0224,0.346,-0.066,0.926,192,0,0,0,0,0,0,0,0,0,0
 2023-06-27 18:17:16.543,-187500.0224,-187500.0224,-187500.0224,-179344.6755,-187500.0224,-186278.7454,-187500.0224,-187500.0224,0.348,-0.064,0.924,192,10,224,254,0,28,224,0,0,0,0
 2023-06-27 18:17:16.543,-187500.0224,-187500.0224,-187500.0224,-179182.7371,-187500.0224,-185977.958,-187500.0224,-187500.0224,0.348,-0.064,0.924,192,0,0,0,0,0,0,0,0,0,0
 2023-06-27 18:17:16.543,-187500.0224,-187500.0224,-187500.0224,-178430.3774,-187500.0224,-184611.037,-187500.0224,-187500.0224,0.348,-0.064,0.924,192,0,0,0,0,0,0,0,0,0,0
 2023-06-27 18:17:16.543,-187500.0224,-187500.0224,-187500.0224,-178170.1583,-187500.0224,-184144.2208,-187500.0224,-187500.0224,0.348,-0.064,0.924,192,0,0,0,0,0,0,0,0,0,0
 2023-06-27 18:17:16.543,-187500.0224,-187500.0224,-187500.0224,-178731.6342,-187500.0224,-185166.992,-187500.0224,-187500.0224,0.348,-0.064,0.924,192,0,0,0,0,0,0,0,0,0,0
 2023-06-27 18:17:16.544,-187500.0224,-187500.0224,-187500.0224,-179342.3956,-187500.0224,-186275.6832,-187500.0224,-187500.0224,0.348,-0.064,0.924,192,0,0,0,0,0,0,0,0,0,0
 2023-06-27 18:17:16.544,-187500.0224,-187500.0224,-187500.0224,-179183.6311,-187500.0224,-185982.5624,-187500.0224,-187500.0224,0.348,-0.064,0.924,192,0,0,0,0,0,0,0,0,0,0
 2023-06-27 18:17:16.544,-187500.0224,-187500.0224,-187500.0224,-178434.5124,-187500.0224,-184618.9719,-187500.0224,-187500.0224,0.348,-0.064,0.924,192,0,0,0,0,0,0,0,0,0,0
 2023-06-27 18:17:16.544,-187500.0224,-187500.0224,-187500.0224,-178167.5208,-187500.0224,-184141.5833,-187500.0224,-187500.0224,0.348,-0.064,0.924,192,0,0,0,0,0,0,0,0,0,0
 2023-06-27 18:17:16.544,-187500.0224,-187500.0224,-187500.0224,-178725.4874,-187500.0224,-185158.2971,-187500.0224,-187500.0224,0.348,-0.064,0.924,192,0,0,0,0,0,0,0,0,0,0
 2023-06-27 18:17:16.544,-187500.0224,-187500.0224,-187500.0224,-179339.311,-187500.0224,-186272.0175,-187500.0224,-187500.0224,0.344,-0.064,0.924,192,10,192,254,0,28,224,0,0,0,0
 2023-06-27 18:17:16.544,-187500.0224,-187500.0224,-187500.0224,-179187.2521,-187500.0224,-185988.9103,-187500.0224,-187500.0224,0.344,-0.064,0.924,192,0,0,0,0,0,0,0,0,0,0
 2023-06-27 18:17:16.544,-187500.0224,-187500.0224,-187500.0224,-178437.5299,-187500.0224,-184625.6551,-187500.0224,-187500.0224,0.344,-0.064,0.924,192,0,0,0,0,0,0,0,0,0,0
 2023-06-27 18:17:16.544,-187500.0224,-187500.0224,-187500.0224,-178165.8892,-187500.0224,-184140.7116,-187500.0224,-187500.0224,0.344,-0.064,0.924,192,0,0,0,0,0,0,0,0,0,0
 2023-06-27 18:17:16.544,-187500.0224,-187500.0224,-187500.0224,-178720.8383,-187500.0224,-185152.7092,-187500.0224,-187500.0224,0.344,-0.064,0.924,192,0,0,0,0,0,0,0,0,0,0
 2023-06-27 18:17:16.544,-187500.0224,-187500.0224,-187500.0224,-179338.9758,-187500.0224,-186272.8669,-187500.0224,-187500.0224,0.344,-0.064,0.924,192,0,0,0,0,0,0,0,0,0,0
 2023-06-27 18:17:16.544,-187500.0224,-187500.0224,-187500.0224,-179189.5544,-187500.0224,-185995.5935,-187500.0224,-187500.0224,0.344,-0.064,0.924,192,0,0,0,0,0,0,0,0,0,0
 2023-06-27 18:17:16.544,-187500.0224,-187500.0224,-187500.0224,-178440.1674,-187500.0224,-184633.2547,-187500.0224,-187500.0224,0.344,-0.064,0.924,192,0,0,0,0,0,0,0,0,0,0
 2023-06-27 18:17:16.544,-187500.0224,-187500.0224,-187500.0224,-178165.6433,-187500.0224,-184142.5445,-187500.0224,-187500.0224,0.344,-0.064,0.924,192,0,0,0,0,0,0,0,0,0,0
 2023-06-27 18:17:16.544,-187500.0224,-187500.0224,-187500.0224,-178716.4797,-187500.0224,-185147.9036,-187500.0224,-187500.0224,0.344,-0.064,0.924,192,0,0,0,0,0,0,0,0,0,0
 2023-06-27 18:17:16.544,-187500.0224,-187500.0224,-187500.0224,-179336.8524,-187500.0224,-186272.3751,-187500.0224,-187500.0224,0.34,-0.06,0.92,192,10,160,254,32,28,192,0,0,0,0
 2023-06-27 18:17:16.544,-187500.0224,-187500.0224,-187500.0224,-179195.5223,-187500.0224,-186006.1882,-187500.0224,-187500.0224,0.34,-0.06,0.92,192,0,0,0,0,0,0,0,0,0,0
 2023-06-27 18:17:16.544,-187500.0224,-187500.0224,-187500.0224,-178448.4823,-187500.0224,-184646.6881,-187500.0224,-187500.0224,0.34,-0.06,0.92,192,0,0,0,0,0,0,0,0,0,0
 2023-06-27 18:17:16.544,-187500.0224,-187500.0224,-187500.0224,-178170.1807,-187500.0224,-184149.7417,-187500.0224,-187500.0224,0.34,-0.06,0.92,192,0,0,0,0,0,0,0,0,0,0
 2023-06-27 18:17:16.544,-187500.0224,-187500.0224,-187500.0224,-178721.0841,-187500.0224,-185153.7374,-187500.0224,-187500.0224,0.34,-0.06,0.92,192,0,0,0,0,0,0,0,0,0,0
 2023-06-27 18:17:16.544,-187500.0224,-187500.0224,-187500.0224,-179342.1497,-187500.0224,-186279.8853,-187500.0224,-187500.0224,0.34,-0.06,0.92,192,0,0,0,0,0,0,0,0,0,0
 2023-06-27 18:17:16.544,-187500.0224,-187500.0224,-187500.0224,-179199.2774,-187500.0224,-186014.4584,-187500.0224,-187500.0224,0.34,-0.06,0.92,192,0,0,0,0,0,0,0,0,0,0
 2023-06-27 18:17:16.544,-187500.0224,-187500.0224,-187500.0224,-178452.6173,-187500.0224,-184655.6735,-187500.0224,-187500.0224,0.34,-0.06,0.92,192,0,0,0,0,0,0,0,0,0,0
 2023-06-27 18:17:16.544,-187500.0224,-187500.0224,-187500.0224,-178172.8853,-187500.0224,-184154.525,-187500.0224,-187500.0224,0.34,-0.06,0.92,192,0,0,0,0,0,0,0,0,0,0
 2023-06-27 18:17:16.544,-187500.0224,-187500.0224,-187500.0224,-178716.9491,-187500.0224,-185148.3059,-187500.0224,-187500.0224,0.34,-0.06,0.92,192,0,0,0,0,0,0,0,0,0,0
 2023-06-27 18:17:16.544,-187500.0224,-187500.0224,-187500.0224,-179339.5346,-187500.0224,-186277.896,-187500.0224,-187500.0224,0.338,-0.066,0.918,192,10,144,253,240,28,176,0,0,0,0
 2023-06-27 18:17:16.544,-187500.0224,-187500.0224,-187500.0224,-179203.1219,-187500.0224,-186021.8791,-187500.0224,-187500.0224,0.338,-0.066,0.918,192,0,0,0,0,0,0,0,0,0,0
 2023-06-27 18:17:16.544,-187500.0224,-187500.0224,-187500.0224,-178454.5619,-187500.0224,-184661.6861,-187500.0224,-187500.0224,0.338,-0.066,0.918,192,0,0,0,0,0,0,0,0,0,0
 2023-06-27 18:17:16.544,-187500.0224,-187500.0224,-187500.0224,-178169.309,-187500.0224,-184151.9993,-187500.0224,-187500.0224,0.338,-0.066,0.918,192,0,0,0,0,0,0,0,0,0,0
 2023-06-27 18:17:16.544,-187500.0224,-187500.0224,-187500.0224,-178710.6235,-187500.0224,-185140.0581,-187500.0224,-187500.0224,0.338,-0.066,0.918,192,0,0,0,0,0,0,0,0,0,0
 2023-06-27 18:17:16.544,-187500.0224,-187500.0224,-187500.0224,-179336.07,-187500.0224,-186275.0797,-187500.0224,-187500.0224,0.338,-0.066,0.918,192,0,0,0,0,0,0,0,0,0,0
 2023-06-27 18:17:16.544,-187500.0224,-187500.0224,-187500.0224,-179202.6301,-187500.0224,-186025.1872,-187500.0224,-187500.0224,0.338,-0.066,0.918,192,0,0,0,0,0,0,0,0,0,0
 2023-06-27 18:17:16.544,-187500.0224,-187500.0224,-187500.0224,-178455.9478,-187500.0224,-184667.2517,-187500.0224,-187500.0224,0.338,-0.066,0.918,192,0,0,0,0,0,0,0,0,0,0
 2023-06-27 18:17:16.544,-187500.0224,-187500.0224,-187500.0224,-178169.1525,-187500.0224,-184152.9157,-187500.0224,-187500.0224,0.338,-0.066,0.918,192,0,0,0,0,0,0,0,0,0,0
 2023-06-27 18:17:16.544,-187500.0224,-187500.0224,-187500.0224,-178710.0424,-187500.0224,-185137.4206,-187500.0224,-187500.0224,0.338,-0.066,0.918,192,0,0,0,0,0,0,0,0,0,0
 2023-06-27 18:17:16.544,-187500.0224,-187500.0224,-187500.0224,-179339.0875,-187500.0224,-186278.4772,-187500.0224,-187500.0224,0.342,-0.066,0.92,192,10,176,253,240,28,192,0,0,0,0
 2023-06-27 18:17:16.544,-187500.0224,-187500.0224,-187500.0224,-179208.1734,-187500.0224,-186034.3291,-187500.0224,-187500.0224,0.342,-0.066,0.92,192,0,0,0,0,0,0,0,0,0,0
 2023-06-27 18:17:16.544,-187500.0224,-187500.0224,-187500.0224,-178464.4191,-187500.0224,-184679.7686,-187500.0224,-187500.0224,0.342,-0.066,0.92,192,0,0,0,0,0,0,0,0,0,0
 2023-06-27 18:17:16.544,-187500.0224,-187500.0224,-187500.0224,-178174.8522,-187500.0224,-184160.1576,-187500.0224,-187500.0224,0.342,-0.066,0.92,192,0,0,0,0,0,0,0,0,0,0
 2023-06-27 18:17:16.544,-187500.0224,-187500.0224,-187500.0224,-178710.2212,-187500.0224,-185136.9959,-187500.0224,-187500.0224,0.342,-0.066,0.92,192,0,0,0,0,0,0,0,0,0,0
 2023-06-27 18:17:16.544,-187500.0224,-187500.0224,-187500.0224,-179340.9874,-187500.0224,-186281.0029,-187500.0224,-187500.0224,0.342,-0.066,0.92,192,0,0,0,0,0,0,0,0,0,0
 2023-06-27 18:17:16.544,-187500.0224,-187500.0224,-187500.0224,-179212.4202,-187500.0224,-186041.9734,-187500.0224,-187500.0224,0.342,-0.066,0.92,192,0,0,0,0,0,0,0,0,0,0
 2023-06-27 18:17:16.544,-187500.0224,-187500.0224,-187500.0224,-178467.7495,-187500.0224,-184687.2341,-187500.0224,-187500.0224,0.342,-0.066,0.92,192,0,0,0,0,0,0,0,0,0,0
 2023-06-27 18:17:16.545,-187500.0224,-187500.0224,-187500.0224,-178173.6229,-187500.0224,-184160.6717,-187500.0224,-187500.0224,0.342,-0.066,0.92,192,0,0,0,0,0,0,0,0,0,0
 2023-06-27 18:17:16.545,-187500.0224,-187500.0224,-187500.0224,-178705.8179,-187500.0224,-185130.9163,-187500.0224,-187500.0224,0.342,-0.066,0.92,192,0,0,0,0,0,0,0,0,0,0
 2023-06-27 18:17:16.545,-187500.0224,-187500.0224,-187500.0224,-179337.8582,-187500.0224,-186277.8513,-187500.0224,-187500.0224,0.342,-0.066,0.92,192,10,176,253,240,28,192,0,0,0,0
 2023-06-27 18:17:16.545,-187500.0224,-187500.0224,-187500.0224,-179213.046,-187500.0224,-186044.6109,-187500.0224,-187500.0224,0.342,-0.066,0.92,192,0,0,0,0,0,0,0,0,0,0
 2023-06-27 18:17:16.545,-187500.0224,-187500.0224,-187500.0224,-178467.2577,-187500.0224,-184689.5811,-187500.0224,-187500.0224,0.342,-0.066,0.92,192,0,0,0,0,0,0,0,0,0,0
 2023-06-27 18:17:16.545,-187500.0224,-187500.0224,-187500.0224,-178169.2866,-187500.0224,-184157.8331,-187500.0224,-187500.0224,0.342,-0.066,0.92,192,0,0,0,0,0,0,0,0,0,0
 2023-06-27 18:17:16.545,-187500.0224,-187500.0224,-187500.0224,-178702.2863,-187500.0224,-185127.4517,-187500.0224,-187500.0224,0.342,-0.066,0.92,192,0,0,0,0,0,0,0,0,0,0
 2023-06-27 18:17:16.545,-187500.0224,-187500.0224,-187500.0224,-179339.691,-187500.0224,-186281.2488,-187500.0224,-187500.0224,0.342,-0.066,0.92,192,0,0,0,0,0,0,0,0,0,0
 2023-06-27 18:17:16.545,-187500.0224,-187500.0224,-187500.0224,-179219.2151,-187500.0224,-186055.7197,-187500.0224,-187500.0224,0.342,-0.066,0.92,192,0,0,0,0,0,0,0,0,0,0
 2023-06-27 18:17:16.545,-187500.0224,-187500.0224,-187500.0224,-178476.4443,-187500.0224,-184704.065,-187500.0224,-187500.0224,0.342,-0.066,0.92,192,0,0,0,0,0,0,0,0,0,0
 2023-06-27 18:17:16.545,-187500.0224,-187500.0224,-187500.0224,-178175.0757,-187500.0224,-184165.7232,-187500.0224,-187500.0224,0.342,-0.066,0.92,192,0,0,0,0,0,0,0,0,0,0
 2023-06-27 18:17:16.545,-187500.0224,-187500.0224,-187500.0224,-178701.057,-187500.0224,-185124.8813,-187500.0224,-187500.0224,0.342,-0.066,0.92,192,0,0,0,0,0,0,0,0,0,0
 2023-06-27 18:17:16.545,-187500.0224,-187500.0224,-187500.0224,-179337.9699,-187500.0224,-186280.1759,-187500.0224,-187500.0224,0.35,-0.07,0.922,192,10,240,253,208,28,208,0,0,0,0
 2023-06-27 18:17:16.545,-187500.0224,-187500.0224,-187500.0224,-179220.1986,-187500.0224,-186060.5477,-187500.0224,-187500.0224,0.35,-0.07,0.922,192,0,0,0,0,0,0,0,0,0,0
 2023-06-27 18:17:16.545,-187500.0224,-187500.0224,-187500.0224,-178479.4394,-187500.0224,-184711.5081,-187500.0224,-187500.0224,0.35,-0.07,0.922,192,0,0,0,0,0,0,0,0,0,0
 2023-06-27 18:17:16.545,-187500.0224,-187500.0224,-187500.0224,-178175.3663,-187500.0224,-184167.0196,-187500.0224,-187500.0224,0.35,-0.07,0.922,192,0,0,0,0,0,0,0,0,0,0
 2023-06-27 18:17:16.545,-187500.0224,-187500.0224,-187500.0224,-178698.8889,-187500.0224,-185120.9921,-187500.0224,-187500.0224,0.35,-0.07,0.922,192,0,0,0,0,0,0,0,0,0,0
 2023-06-27 18:17:16.545,-187500.0224,-187500.0224,-187500.0224,-179338.6405,-187500.0224,-186281.2711,-187500.0224,-187500.0224,0.35,-0.07,0.922,192,0,0,0,0,0,0,0,0,0,0
 2023-06-27 18:17:16.545,-187500.0224,-187500.0224,-187500.0224,-179228.2229,-187500.0224,-186071.7906,-187500.0224,-187500.0224,0.35,-0.07,0.922,192,0,0,0,0,0,0,0,0,0,0
 2023-06-27 18:17:16.545,-187500.0224,-187500.0224,-187500.0224,-178485.2509,-187500.0224,-184721.2535,-187500.0224,-187500.0224,0.35,-0.07,0.922,192,0,0,0,0,0,0,0,0,0,0
 2023-06-27 18:17:16.545,-187500.0224,-187500.0224,-187500.0224,-178175.5004,-187500.0224,-184168.6066,-187500.0224,-187500.0224,0.35,-0.07,0.922,192,0,0,0,0,0,0,0,0,0,0
 2023-06-27 18:17:16.545,-187500.0224,-187500.0224,-187500.0224,-178698.1066,-187500.0224,-185120.858,-187500.0224,-187500.0224,0.35,-0.07,0.922,192,0,0,0,0,0,0,0,0,0,0
 2023-06-27 18:17:16.545,-187500.0224,-187500.0224,-187500.0224,-179338.4617,-187500.0224,-186283.171,-187500.0224,-187500.0224,0.348,-0.072,0.922,192,10,224,253,192,28,208,0,0,0,0
 2023-06-27 18:17:16.545,-187500.0224,-187500.0224,-187500.0224,-179225.7865,-187500.0224,-186073.2882,-187500.0224,-187500.0224,0.348,-0.072,0.922,192,0,0,0,0,0,0,0,0,0,0
 2023-06-27 18:17:16.545,-187500.0224,-187500.0224,-187500.0224,-178484.9603,-187500.0224,-184724.8074,-187500.0224,-187500.0224,0.348,-0.072,0.922,192,0,0,0,0,0,0,0,0,0,0
 2023-06-27 18:17:16.545,-187500.0224,-187500.0224,-187500.0224,-178175.2992,-187500.0224,-184169.1877,-187500.0224,-187500.0224,0.348,-0.072,0.922,192,0,0,0,0,0,0,0,0,0,0
 2023-06-27 18:17:16.545,-187500.0224,-187500.0224,-187500.0224,-178693.3233,-187500.0224,-185113.616,-187500.0224,-187500.0224,0.348,-0.072,0.922,192,0,0,0,0,0,0,0,0,0,0
 2023-06-27 18:17:16.545,-187500.0224,-187500.0224,-187500.0224,-179334.6619,-187500.0224,-186278.8571,-187500.0224,-187500.0224,0.348,-0.072,0.922,192,0,0,0,0,0,0,0,0,0,0
 2023-06-27 18:17:16.545,-187500.0224,-187500.0224,-187500.0224,-179228.1335,-187500.0224,-186078.4738,-187500.0224,-187500.0224,0.348,-0.072,0.922,192,0,0,0,0,0,0,0,0,0,0
 2023-06-27 18:17:16.545,-187500.0224,-187500.0224,-187500.0224,-178486.3685,-187500.0224,-184730.0601,-187500.0224,-187500.0224,0.348,-0.072,0.922,192,0,0,0,0,0,0,0,0,0,0
 2023-06-27 18:17:16.545,-187500.0224,-187500.0224,-187500.0224,-178173.0864,-187500.0224,-184167.7349,-187500.0224,-187500.0224,0.348,-0.072,0.922,192,0,0,0,0,0,0,0,0,0,0
 2023-06-27 18:17:16.545,-187500.0224,-187500.0224,-187500.0224,-178687.8695,-187500.0224,-185105.167,-187500.0224,-187500.0224,0.348,-0.072,0.922,192,0,0,0,0,0,0,0,0,0,0
 2023-06-27 18:17:16.545,-187500.0224,-187500.0224,-187500.0224,-179336.2712,-187500.0224,-186279.863,-187500.0224,-187500.0224,0.346,-0.074,0.922,192,10,208,253,176,28,208,0,0,0,0
 2023-06-27 18:17:17.024,-187500.0224,-187500.0224,-187500.0224,-179233.7885,-187500.0224,-186087.1686,-187500.0224,-187500.0224,0.346,-0.074,0.922,192,0,0,0,0,0,0,0,0,0,0
 2023-06-27 18:17:17.024,-187500.0224,-187500.0224,-187500.0224,-178493.2081,-187500.0224,-184740.4983,-187500.0224,-187500.0224,0.346,-0.074,0.922,192,0,0,0,0,0,0,0,0,0,0
 2023-06-27 18:17:17.024,-187500.0224,-187500.0224,-187500.0224,-178175.1428,-187500.0224,-184170.4394,-187500.0224,-187500.0224,0.346,-0.074,0.922,192,0,0,0,0,0,0,0,0,0,0
 2023-06-27 18:17:17.024,-187500.0224,-187500.0224,-187500.0224,-178683.4438,-187500.0224,-185098.685,-187500.0224,-187500.0224,0.346,-0.074,0.922,192,0,0,0,0,0,0,0,0,0,0
 2023-06-27 18:17:17.024,-187500.0224,-187500.0224,-187500.0224,-179330.9291,-187500.0224,-186274.3197,-187500.0224,-187500.0224,0.346,-0.074,0.922,192,0,0,0,0,0,0,0,0,0,0
 2023-06-27 18:17:17.024,-187500.0224,-187500.0224,-187500.0224,-179231.6427,-187500.0224,-186087.6603,-187500.0224,-187500.0224,0.346,-0.074,0.922,192,0,0,0,0,0,0,0,0,0,0
 2023-06-27 18:17:17.024,-187500.0224,-187500.0224,-187500.0224,-178493.0964,-187500.0224,-184743.3817,-187500.0224,-187500.0224,0.346,-0.074,0.922,192,0,0,0,0,0,0,0,0,0,0
 2023-06-27 18:17:17.024,-187500.0224,-187500.0224,-187500.0224,-178171.5218,-187500.0224,-184166.9079,-187500.0224,-187500.0224,0.346,-0.074,0.922,192,0,0,0,0,0,0,0,0,0,0
 2023-06-27 18:17:17.024,-187500.0224,-187500.0224,-187500.0224,-178680.471,-187500.0224,-185093.5218,-187500.0224,-187500.0224,0.346,-0.074,0.922,192,0,0,0,0,0,0,0,0,0,0
 2023-06-27 18:17:17.024,-187500.0224,-187500.0224,-187500.0224,-179332.4491,-187500.0224,-186275.7726,-187500.0224,-187500.0224,0.344,-0.074,0.92,192,10,192,253,176,28,192,0,0,0,0
 2023-06-27 18:17:17.024,-187500.0224,-187500.0224,-187500.0224,-179238.527,-187500.0224,-186097.7186,-187500.0224,-187500.0224,0.344,-0.074,0.92,192,0,0,0,0,0,0,0,0,0,0
 2023-06-27 18:17:17.024,-187500.0224,-187500.0224,-187500.0224,-178498.2596,-187500.0224,-184752.233,-187500.0224,-187500.0224,0.344,-0.074,0.92,192,0,0,0,0,0,0,0,0,0,0
 2023-06-27 18:17:17.024,-187500.0224,-187500.0224,-187500.0224,-178170.1136,-187500.0224,-184165.4327,-187500.0224,-187500.0224,0.344,-0.074,0.92,192,0,0,0,0,0,0,0,0,0,0
 2023-06-27 18:17:17.024,-187500.0224,-187500.0224,-187500.0224,-178673.6761,-187500.0224,-185083.3294,-187500.0224,-187500.0224,0.344,-0.074,0.92,192,0,0,0,0,0,0,0,0,0,0
 2023-06-27 18:17:17.024,-187500.0224,-187500.0224,-187500.0224,-179327.7552,-187500.0224,-186270.7435,-187500.0224,-187500.0224,0.344,-0.074,0.92,192,0,0,0,0,0,0,0,0,0,0
 2023-06-27 18:17:17.024,-187500.0224,-187500.0224,-187500.0224,-179235.7778,-187500.0224,-186098.568,-187500.0224,-187500.0224,0.344,-0.074,0.92,192,0,0,0,0,0,0,0,0,0,0
 2023-06-27 18:17:17.024,-187500.0224,-187500.0224,-187500.0224,-178497.1197,-187500.0224,-184754.714,-187500.0224,-187500.0224,0.344,-0.074,0.92,192,0,0,0,0,0,0,0,0,0,0
 2023-06-27 18:17:17.024,-187500.0224,-187500.0224,-187500.0224,-178169.5325,-187500.0224,-184165.1197,-187500.0224,-187500.0224,0.344,-0.074,0.92,192,0,0,0,0,0,0,0,0,0,0
 2023-06-27 18:17:17.024,-187500.0224,-187500.0224,-187500.0224,-178669.8316,-187500.0224,-185076.7803,-187500.0224,-187500.0224,0.344,-0.074,0.92,192,0,0,0,0,0,0,0,0,0,0
 2023-06-27 18:17:17.025,-187500.0224,-187500.0224,-187500.0224,-179328.0905,-187500.0224,-186270.9893,-187500.0224,-187500.0224,0.344,-0.074,0.92,192,0,0,0,0,0,0,0,0,0,0
 2023-06-27 18:17:17.025,-187500.0224,-187500.0224,-187500.0224,-179243.7797,-187500.0224,-186109.9674,-187500.0224,-187500.0224,0.34,-0.07,0.916,192,10,160,253,208,28,160,0,0,0,0
 2023-06-27 18:17:17.025,-187500.0224,-187500.0224,-187500.0224,-178505.0992,-187500.0224,-184766.6499,-187500.0224,-187500.0224,0.34,-0.07,0.916,192,0,0,0,0,0,0,0,0,0,0
 2023-06-27 18:17:17.025,-187500.0224,-187500.0224,-187500.0224,-178171.3653,-187500.0224,-184168.3384,-187500.0224,-187500.0224,0.34,-0.07,0.916,192,0,0,0,0,0,0,0,0,0,0
 2023-06-27 18:17:17.025,-187500.0224,-187500.0224,-187500.0224,-178671.0609,-187500.0224,-185079.7978,-187500.0224,-187500.0224,0.34,-0.07,0.916,192,0,0,0,0,0,0,0,0,0,0
 2023-06-27 18:17:17.025,-187500.0224,-187500.0224,-187500.0224,-179330.8844,-187500.0224,-186276.1749,-187500.0224,-187500.0224,0.34,-0.07,0.916,192,0,0,0,0,0,0,0,0,0,0
 2023-06-27 18:17:17.025,-187500.0224,-187500.0224,-187500.0224,-179250.7087,-187500.0224,-186121.7244,-187500.0224,-187500.0224,0.34,-0.07,0.916,192,0,0,0,0,0,0,0,0,0,0
 2023-06-27 18:17:17.025,-187500.0224,-187500.0224,-187500.0224,-178513.347,-187500.0224,-184780.2397,-187500.0224,-187500.0224,0.34,-0.07,0.916,192,0,0,0,0,0,0,0,0,0,0
 2023-06-27 18:17:17.025,-187500.0224,-187500.0224,-187500.0224,-178170.8513,-187500.0224,-184168.3607,-187500.0224,-187500.0224,0.34,-0.07,0.916,192,0,0,0,0,0,0,0,0,0,0
 2023-06-27 18:17:17.025,-187500.0224,-187500.0224,-187500.0224,-178664.199,-187500.0224,-185069.0019,-187500.0224,-187500.0224,0.34,-0.07,0.916,192,0,0,0,0,0,0,0,0,0,0
 2023-06-27 18:17:17.025,-187500.0224,-187500.0224,-187500.0224,-179327.6658,-187500.0224,-186272.0399,-187500.0224,-187500.0224,0.34,-0.07,0.916,192,0,0,0,0,0,0,0,0,0,0
 2023-06-27 18:17:17.025,-187500.0224,-187500.0224,-187500.0224,-179250.8652,-187500.0224,-186125.4795,-187500.0224,-187500.0224,0.342,-0.068,0.92,192,10,176,253,224,28,192,0,0,0,0
 2023-06-27 18:17:17.025,-187500.0224,-187500.0224,-187500.0224,-178515.8281,-187500.0224,-184786.6323,-187500.0224,-187500.0224,0.342,-0.068,0.92,192,0,0,0,0,0,0,0,0,0,0
 2023-06-27 18:17:17.025,-187500.0224,-187500.0224,-187500.0224,-178171.0301,-187500.0224,-184168.4054,-187500.0224,-187500.0224,0.342,-0.068,0.92,192,0,0,0,0,0,0,0,0,0,0
 2023-06-27 18:17:17.025,-187500.0224,-187500.0224,-187500.0224,-178658.7004,-187500.0224,-185057.826,-187500.0224,-187500.0224,0.342,-0.068,0.92,192,0,0,0,0,0,0,0,0,0,0
 2023-06-27 18:17:17.025,-187500.0224,-187500.0224,-187500.0224,-179324.0895,-187500.0224,-186266.4072,-187500.0224,-187500.0224,0.342,-0.068,0.92,192,0,0,0,0,0,0,0,0,0,0
 2023-06-27 18:17:17.025,-187500.0224,-187500.0224,-187500.0224,-179252.1392,-187500.0224,-186129.5475,-187500.0224,-187500.0224,0.342,-0.068,0.92,192,0,0,0,0,0,0,0,0,0,0
 2023-06-27 18:17:17.025,-187500.0224,-187500.0224,-187500.0224,-178518.2197,-187500.0224,-184792.8685,-187500.0224,-187500.0224,0.342,-0.068,0.92,192,0,0,0,0,0,0,0,0,0,0
 2023-06-27 18:17:17.025,-187500.0224,-187500.0224,-187500.0224,-178170.0689,-187500.0224,-184167.109,-187500.0224,-187500.0224,0.342,-0.068,0.92,192,0,0,0,0,0,0,0,0,0,0
 2023-06-27 18:17:17.025,-187500.0224,-187500.0224,-187500.0224,-178655.2359,-187500.0224,-185050.7405,-187500.0224,-187500.0224,0.342,-0.068,0.92,192,0,0,0,0,0,0,0,0,0,0
 2023-06-27 18:17:17.025,-187500.0224,-187500.0224,-187500.0224,-179325.2965,-187500.0224,-186266.3849,-187500.0224,-187500.0224,0.342,-0.068,0.92,192,0,0,0,0,0,0,0,0,0,0
 2023-06-27 18:17:17.025,-187500.0224,-187500.0224,-187500.0224,-179260.6776,-187500.0224,-186140.5893,-187500.0224,-187500.0224,0.344,-0.068,0.918,192,10,192,253,224,28,176,0,0,0,0
 2023-06-27 18:17:17.025,-187500.0224,-187500.0224,-187500.0224,-178526.2216,-187500.0224,-184805.1843,-187500.0224,-187500.0224,0.344,-0.068,0.918,192,0,0,0,0,0,0,0,0,0,0
 2023-06-27 18:17:17.025,-187500.0224,-187500.0224,-187500.0224,-178171.2759,-187500.0224,-184169.8583,-187500.0224,-187500.0224,0.344,-0.068,0.918,192,0,0,0,0,0,0,0,0,0,0
 2023-06-27 18:17:17.025,-187500.0224,-187500.0224,-187500.0224,-178653.9619,-187500.0224,-185051.1876,-187500.0224,-187500.0224,0.344,-0.068,0.918,192,0,0,0,0,0,0,0,0,0,0
 2023-06-27 18:17:17.025,-187500.0224,-187500.0224,-187500.0224,-179323.5754,-187500.0224,-186268.0836,-187500.0224,-187500.0224,0.344,-0.068,0.918,192,0,0,0,0,0,0,0,0,0,0
 2023-06-27 18:17:17.025,-187500.0224,-187500.0224,-187500.0224,-179260.9235,-187500.0224,-186147.2054,-187500.0224,-187500.0224,0.344,-0.068,0.918,192,0,0,0,0,0,0,0,0,0,0
 2023-06-27 18:17:17.025,-187500.0224,-187500.0224,-187500.0224,-178527.8757,-187500.0224,-184813.4321,-187500.0224,-187500.0224,0.344,-0.068,0.918,192,0,0,0,0,0,0,0,0,0,0
 2023-06-27 18:17:17.025,-187500.0224,-187500.0224,-187500.0224,-178171.8571,-187500.0224,-184172.764,-187500.0224,-187500.0224,0.344,-0.068,0.918,192,0,0,0,0,0,0,0,0,0,0
 2023-06-27 18:17:17.025,-187500.0224,-187500.0224,-187500.0224,-178650.6761,-187500.0224,-185044.0127,-187500.0224,-187500.0224,0.344,-0.068,0.918,192,0,0,0,0,0,0,0,0,0,0
 2023-06-27 18:17:17.025,-187500.0224,-187500.0224,-187500.0224,-179322.8825,-187500.0224,-186265.692,-187500.0224,-187500.0224,0.344,-0.068,0.918,192,0,0,0,0,0,0,0,0,0,0
 2023-06-27 18:17:17.025,-187500.0224,-187500.0224,-187500.0224,-179264.3656,-187500.0224,-186153.0615,-187500.0224,-187500.0224,0.348,-0.068,0.92,192,10,224,253,224,28,192,0,0,0,0
 2023-06-27 18:17:17.025,-187500.0224,-187500.0224,-187500.0224,-178535.207,-187500.0224,-184824.6974,-187500.0224,-187500.0224,0.348,-0.068,0.92,192,0,0,0,0,0,0,0,0,0,0
 2023-06-27 18:17:17.025,-187500.0224,-187500.0224,-187500.0224,-178172.8406,-187500.0224,-184174.0828,-187500.0224,-187500.0224,0.348,-0.068,0.92,192,0,0,0,0,0,0,0,0,0,0
 2023-06-27 18:17:17.025,-187500.0224,-187500.0224,-187500.0224,-178645.6917,-187500.0224,-185036.3907,-187500.0224,-187500.0224,0.348,-0.068,0.92,192,0,0,0,0,0,0,0,0,0,0
 2023-06-27 18:17:17.025,-187500.0224,-187500.0224,-187500.0224,-179324.3354,-187500.0224,-186267.5472,-187500.0224,-187500.0224,0.348,-0.068,0.92,192,0,0,0,0,0,0,0,0,0,0
 2023-06-27 18:17:17.025,-187500.0224,-187500.0224,-187500.0224,-179271.9876,-187500.0224,-186165.1315,-187500.0224,-187500.0224,0.348,-0.068,0.92,192,0,0,0,0,0,0,0,0,0,0
 2023-06-27 18:17:17.025,-187500.0224,-187500.0224,-187500.0224,-178542.1361,-187500.0224,-184836.7896,-187500.0224,-187500.0224,0.348,-0.068,0.92,192,0,0,0,0,0,0,0,0,0,0
 2023-06-27 18:17:17.025,-187500.0224,-187500.0224,-187500.0224,-178173.6899,-187500.0224,-184176.4521,-187500.0224,-187500.0224,0.348,-0.068,0.92,192,0,0,0,0,0,0,0,0,0,0
 2023-06-27 18:17:17.025,-187500.0224,-187500.0224,-187500.0224,-178642.3837,-187500.0224,-185031.0934,-187500.0224,-187500.0224,0.348,-0.068,0.92,192,0,0,0,0,0,0,0,0,0,0
 2023-06-27 18:17:17.025,-187500.0224,-187500.0224,-187500.0224,-179322.279,-187500.0224,-186264.8426,-187500.0224,-187500.0224,0.348,-0.068,0.92,192,0,0,0,0,0,0,0,0,0,0
 2023-06-27 18:17:17.025,-187500.0224,-187500.0224,-187500.0224,-179274.7145,-187500.0224,-186170.8535,-187500.0224,-187500.0224,0.34,-0.066,0.924,192,10,160,253,240,28,224,0,0,0,0
 2023-06-27 18:17:17.025,-187500.0224,-187500.0224,-187500.0224,-178548.2381,-187500.0224,-184847.2726,-187500.0224,-187500.0224,0.34,-0.066,0.924,192,0,0,0,0,0,0,0,0,0,0
 2023-06-27 18:17:17.025,-187500.0224,-187500.0224,-187500.0224,-178175.0757,-187500.0224,-184178.9778,-187500.0224,-187500.0224,0.34,-0.066,0.924,192,0,0,0,0,0,0,0,0,0,0
 2023-06-27 18:17:17.025,-187500.0224,-187500.0224,-187500.0224,-178639.992,-187500.0224,-185026.5336,-187500.0224,-187500.0224,0.34,-0.066,0.924,192,0,0,0,0,0,0,0,0,0,0
 2023-06-27 18:17:17.025,-187500.0224,-187500.0224,-187500.0224,-179322.0108,-187500.0224,-186264.3956,-187500.0224,-187500.0224,0.34,-0.066,0.924,192,0,0,0,0,0,0,0,0,0,0
 2023-06-27 18:17:17.025,-187500.0224,-187500.0224,-187500.0224,-179277.6202,-187500.0224,-186177.2238,-187500.0224,-187500.0224,0.34,-0.066,0.924,192,0,0,0,0,0,0,0,0,0,0
 2023-06-27 18:17:17.026,-187500.0224,-187500.0224,-187500.0224,-178551.5015,-187500.0224,-184855.4534,-187500.0224,-187500.0224,0.34,-0.066,0.924,192,0,0,0,0,0,0,0,0,0,0
 2023-06-27 18:17:17.026,-187500.0224,-187500.0224,-187500.0224,-178173.377,-187500.0224,-184179.2237,-187500.0224,-187500.0224,0.34,-0.066,0.924,192,0,0,0,0,0,0,0,0,0,0
 2023-06-27 18:17:17.026,-187500.0224,-187500.0224,-187500.0224,-178633.9347,-187500.0224,-185020.3869,-187500.0224,-187500.0224,0.34,-0.066,0.924,192,0,0,0,0,0,0,0,0,0,0
 2023-06-27 18:17:17.026,-187500.0224,-187500.0224,-187500.0224,-179315.2382,-187500.0224,-186258.8076,-187500.0224,-187500.0224,0.34,-0.066,0.924,192,0,0,0,0,0,0,0,0,0,0
 2023-06-27 18:17:17.026,-187500.0224,-187500.0224,-187500.0224,-179277.2402,-187500.0224,-186181.0906,-187500.0224,-187500.0224,0.34,-0.062,0.926,192,10,160,254,16,28,240,0,0,0,0
 2023-06-27 18:17:17.026,-187500.0224,-187500.0224,-187500.0224,-178555.4354,-187500.0224,-184865.2881,-187500.0224,-187500.0224,0.34,-0.062,0.926,192,0,0,0,0,0,0,0,0,0,0
 2023-06-27 18:17:17.026,-187500.0224,-187500.0224,-187500.0224,-178177.5344,-187500.0224,-184187.3821,-187500.0224,-187500.0224,0.34,-0.062,0.926,192,0,0,0,0,0,0,0,0,0,0
 2023-06-27 18:17:17.026,-187500.0224,-187500.0224,-187500.0224,-178641.0873,-187500.0224,-185032.725,-187500.0224,-187500.0224,0.34,-0.062,0.926,192,0,0,0,0,0,0,0,0,0,0
 2023-06-27 18:17:17.026,-187500.0224,-187500.0224,-187500.0224,-179325.2965,-187500.0224,-186273.3586,-187500.0224,-187500.0224,0.34,-0.062,0.926,192,0,0,0,0,0,0,0,0,0,0
 2023-06-27 18:17:17.026,-187500.0224,-187500.0224,-187500.0224,-179286.0468,-187500.0224,-186197.0498,-187500.0224,-187500.0224,0.34,-0.062,0.926,192,0,0,0,0,0,0,0,0,0,0
 2023-06-27 18:17:17.026,-187500.0224,-187500.0224,-187500.0224,-178563.1914,-187500.0224,-184880.979,-187500.0224,-187500.0224,0.34,-0.062,0.926,192,0,0,0,0,0,0,0,0,0,0
 2023-06-27 18:17:17.026,-187500.0224,-187500.0224,-187500.0224,-178180.4625,-187500.0224,-184193.2829,-187500.0224,-187500.0224,0.34,-0.062,0.926,192,0,0,0,0,0,0,0,0,0,0
 2023-06-27 18:17:17.026,-187500.0224,-187500.0224,-187500.0224,-178636.1922,-187500.0224,-185023.3597,-187500.0224,-187500.0224,0.34,-0.062,0.926,192,0,0,0,0,0,0,0,0,0,0
 2023-06-27 18:17:17.026,-187500.0224,-187500.0224,-187500.0224,-179321.6085,-187500.0224,-186268.0613,-187500.0224,-187500.0224,0.34,-0.062,0.926,192,0,0,0,0,0,0,0,0,0,0
 2023-06-27 18:17:17.026,-187500.0224,-187500.0224,-187500.0224,-179290.8301,-187500.0224,-186204.2694,-187500.0224,-187500.0224,0.346,-0.068,0.93,192,10,208,253,224,29,16,0,0,0,0
 2023-06-27 18:17:17.026,-187500.0224,-187500.0224,-187500.0224,-178570.724,-187500.0224,-184892.6243,-187500.0224,-187500.0224,0.346,-0.068,0.93,192,0,0,0,0,0,0,0,0,0,0
 2023-06-27 18:17:17.026,-187500.0224,-187500.0224,-187500.0224,-178181.2225,-187500.0224,-184195.6075,-187500.0224,-187500.0224,0.346,-0.068,0.93,192,0,0,0,0,0,0,0,0,0,0
 2023-06-27 18:17:17.026,-187500.0224,-187500.0224,-187500.0224,-178629.8667,-187500.0224,-185014.4413,-187500.0224,-187500.0224,0.346,-0.068,0.93,192,0,0,0,0,0,0,0,0,0,0
 2023-06-27 18:17:17.026,-187500.0224,-187500.0224,-187500.0224,-179318.591,-187500.0224,-186264.6191,-187500.0224,-187500.0224,0.346,-0.068,0.93,192,0,0,0,0,0,0,0,0,0,0
 2023-06-27 18:17:17.026,-187500.0224,-187500.0224,-187500.0224,-179288.3491,-187500.0224,-186205.007,-187500.0224,-187500.0224,0.346,-0.068,0.93,192,0,0,0,0,0,0,0,0,0,0
 2023-06-27 18:17:17.026,-187500.0224,-187500.0224,-187500.0224,-178571.3051,-187500.0224,-184897.8099,-187500.0224,-187500.0224,0.346,-0.068,0.93,192,0,0,0,0,0,0,0,0,0,0
 2023-06-27 18:17:17.026,-187500.0224,-187500.0224,-187500.0224,-178181.893,-187500.0224,-184197.865,-187500.0224,-187500.0224,0.346,-0.068,0.93,192,0,0,0,0,0,0,0,0,0,0
 2023-06-27 18:17:17.026,-187500.0224,-187500.0224,-187500.0224,-178630.2914,-187500.0224,-185014.419,-187500.0224,-187500.0224,0.346,-0.068,0.93,192,0,0,0,0,0,0,0,0,0,0
 2023-06-27 18:17:17.026,-187500.0224,-187500.0224,-187500.0224,-179321.1391,-187500.0224,-186267.9048,-187500.0224,-187500.0224,0.346,-0.068,0.93,192,0,0,0,0,0,0,0,0,0,0
 2023-06-27 18:17:17.026,-187500.0224,-187500.0224,-187500.0224,-179295.0769,-187500.0224,-186215.2217,-187500.0224,-187500.0224,0.348,-0.068,0.926,192,10,224,253,224,28,240,0,0,0,0
 2023-06-27 18:17:17.026,-187500.0224,-187500.0224,-187500.0224,-178578.3459,-187500.0224,-184909.3658,-187500.0224,-187500.0224,0.348,-0.068,0.926,192,0,0,0,0,0,0,0,0,0,0
 2023-06-27 18:17:17.026,-187500.0224,-187500.0224,-187500.0224,-178183.8823,-187500.0224,-184200.5919,-187500.0224,-187500.0224,0.348,-0.068,0.926,192,0,0,0,0,0,0,0,0,0,0
 2023-06-27 18:17:17.026,-187500.0224,-187500.0224,-187500.0224,-178622.6694,-187500.0224,-185002.3937,-187500.0224,-187500.0224,0.348,-0.068,0.926,192,0,0,0,0,0,0,0,0,0,0
 2023-06-27 18:17:17.026,-187500.0224,-187500.0224,-187500.0224,-179315.2382,-187500.0224,-186260.037,-187500.0224,-187500.0224,0.348,-0.068,0.926,192,0,0,0,0,0,0,0,0,0,0
 2023-06-27 18:17:17.026,-187500.0224,-187500.0224,-187500.0224,-179297.0662,-187500.0224,-186219.7144,-187500.0224,-187500.0224,0.348,-0.068,0.926,192,0,0,0,0,0,0,0,0,0,0
 2023-06-27 18:17:17.026,-187500.0224,-187500.0224,-187500.0224,-178581.1399,-187500.0224,-184916.6748,-187500.0224,-187500.0224,0.348,-0.068,0.926,192,0,0,0,0,0,0,0,0,0,0
 2023-06-27 18:17:17.026,-187500.0224,-187500.0224,-187500.0224,-178180.7531,-187500.0224,-184198.9826,-187500.0224,-187500.0224,0.348,-0.068,0.926,192,0,0,0,0,0,0,0,0,0,0
 2023-06-27 18:17:17.026,-187500.0224,-187500.0224,-187500.0224,-178618.3108,-187500.0224,-184996.4482,-187500.0224,-187500.0224,0.348,-0.068,0.926,192,0,0,0,0,0,0,0,0,0,0
 2023-06-27 18:17:17.026,-187500.0224,-187500.0224,-187500.0224,-179313.2266,-187500.0224,-186258.003,-187500.0224,-187500.0224,0.348,-0.068,0.926,192,0,0,0,0,0,0,0,0,0,0
 2023-06-27 18:17:17.026,-187500.0224,-187500.0224,-187500.0224,-179299.0332,-187500.0224,-186225.4812,-187500.0224,-187500.0224,0.346,-0.07,0.928,192,10,208,253,208,29,0,0,0,0,0
 2023-06-27 18:17:17.026,-187500.0224,-187500.0224,-187500.0224,-178587.8007,-187500.0224,-184927.8283,-187500.0224,-187500.0224,0.346,-0.07,0.928,192,0,0,0,0,0,0,0,0,0,0
 2023-06-27 18:17:17.026,-187500.0224,-187500.0224,-187500.0224,-178188.9338,-187500.0224,-184208.8174,-187500.0224,-187500.0224,0.346,-0.07,0.928,192,0,0,0,0,0,0,0,0,0,0
 2023-06-27 18:17:17.026,-187500.0224,-187500.0224,-187500.0224,-178620.4789,-187500.0224,-184997.2528,-187500.0224,-187500.0224,0.346,-0.07,0.928,192,0,0,0,0,0,0,0,0,0,0
 2023-06-27 18:17:17.026,-187500.0224,-187500.0224,-187500.0224,-179315.1935,-187500.0224,-186259.4782,-187500.0224,-187500.0224,0.346,-0.07,0.928,192,0,0,0,0,0,0,0,0,0,0
 2023-06-27 18:17:17.026,-187500.0224,-187500.0224,-187500.0224,-179304.2188,-187500.0224,-186233.0137,-187500.0224,-187500.0224,0.346,-0.07,0.928,192,0,0,0,0,0,0,0,0,0,0
 2023-06-27 18:17:17.026,-187500.0224,-187500.0224,-187500.0224,-178595.6238,-187500.0224,-184939.6971,-187500.0224,-187500.0224,0.346,-0.07,0.928,192,0,0,0,0,0,0,0,0,0,0
 2023-06-27 18:17:17.026,-187500.0224,-187500.0224,-187500.0224,-178188.5315,-187500.0224,-184209.8009,-187500.0224,-187500.0224,0.346,-0.07,0.928,192,0,0,0,0,0,0,0,0,0,0
 2023-06-27 18:17:17.026,-187500.0224,-187500.0224,-187500.0224,-178618.3108,-187500.0224,-184993.4977,-187500.0224,-187500.0224,0.346,-0.07,0.928,192,0,0,0,0,0,0,0,0,0,0
 2023-06-27 18:17:17.026,-187500.0224,-187500.0224,-187500.0224,-179314.4336,-187500.0224,-186258.9864,-187500.0224,-187500.0224,0.346,-0.07,0.928,192,0,0,0,0,0,0,0,0,0,0
 2023-06-27 18:17:17.026,-187500.0224,-187500.0224,-187500.0224,-179306.2975,-187500.0224,-186239.4734,-187500.0224,-187500.0224,0.344,-0.064,0.924,192,10,192,254,0,28,224,0,0,0,0
 2023-06-27 18:17:17.026,-187500.0224,-187500.0224,-187500.0224,-178598.6413,-187500.0224,-184948.8166,-187500.0224,-187500.0224,0.344,-0.064,0.924,192,0,0,0,0,0,0,0,0,0,0
 2023-06-27 18:17:17.026,-187500.0224,-187500.0224,-187500.0224,-178188.5762,-187500.0224,-184211.7678,-187500.0224,-187500.0224,0.344,-0.064,0.924,192,0,0,0,0,0,0,0,0,0,0
 2023-06-27 18:17:17.026,-187500.0224,-187500.0224,-187500.0224,-178611.8735,-187500.0224,-184984.8476,-187500.0224,-187500.0224,0.344,-0.064,0.924,192,0,0,0,0,0,0,0,0,0,0
 2023-06-27 18:17:17.026,-187500.0224,-187500.0224,-187500.0224,-179307.8845,-187500.0224,-186251.6998,-187500.0224,-187500.0224,0.344,-0.064,0.924,192,0,0,0,0,0,0,0,0,0,0
 2023-06-27 18:17:17.026,-187500.0224,-187500.0224,-187500.0224,-179303.5483,-187500.0224,-186238.9593,-187500.0224,-187500.0224,0.344,-0.064,0.924,192,0,0,0,0,0,0,0,0,0,0
 2023-06-27 18:17:17.026,-187500.0224,-187500.0224,-187500.0224,-178599.9153,-187500.0224,-184953.9128,-187500.0224,-187500.0224,0.344,-0.064,0.924,192,0,0,0,0,0,0,0,0,0,0
 2023-06-27 18:17:17.026,-187500.0224,-187500.0224,-187500.0224,-178186.5422,-187500.0224,-184211.2761,-187500.0224,-187500.0224,0.344,-0.064,0.924,192,0,0,0,0,0,0,0,0,0,0
 2023-06-27 18:17:17.026,-187500.0224,-187500.0224,-187500.0224,-178603.8716,-187500.0224,-184974.5658,-187500.0224,-187500.0224,0.344,-0.064,0.924,192,0,0,0,0,0,0,0,0,0,0
 2023-06-27 18:17:17.026,-187500.0224,-187500.0224,-187500.0224,-179304.7329,-187500.0224,-186247.9447,-187500.0224,-187500.0224,0.344,-0.064,0.924,192,0,0,0,0,0,0,0,0,0,0
 2023-06-27 18:17:17.026,-187500.0224,-187500.0224,-187500.0224,-179308.4656,-187500.0224,-186247.14,-187500.0224,-187500.0224,0.346,-0.068,0.93,192,10,208,253,224,29,16,0,0,0,0
 2023-06-27 18:17:17.504,-187500.0224,-187500.0224,-187500.0224,-178604.721,-187500.0224,-184963.2782,-187500.0224,-187500.0224,0.346,-0.068,0.93,192,0,0,0,0,0,0,0,0,0,0
 2023-06-27 18:17:17.504,-187500.0224,-187500.0224,-187500.0224,-178188.9785,-187500.0224,-184215.3217,-187500.0224,-187500.0224,0.346,-0.068,0.93,192,0,0,0,0,0,0,0,0,0,0
 2023-06-27 18:17:17.504,-187500.0224,-187500.0224,-187500.0224,-178608.7666,-187500.0224,-184981.629,-187500.0224,-187500.0224,0.346,-0.068,0.93,192,0,0,0,0,0,0,0,0,0,0
 2023-06-27 18:17:17.504,-187500.0224,-187500.0224,-187500.0224,-179309.9409,-187500.0224,-186255.7901,-187500.0224,-187500.0224,0.346,-0.068,0.93,192,0,0,0,0,0,0,0,0,0,0
 2023-06-27 18:17:17.504,-187500.0224,-187500.0224,-187500.0224,-179313.9418,-187500.0224,-186257.0195,-187500.0224,-187500.0224,0.346,-0.068,0.93,192,0,0,0,0,0,0,0,0,0,0
 2023-06-27 18:17:17.504,-187500.0224,-187500.0224,-187500.0224,-178608.8784,-187500.0224,-184973.0012,-187500.0224,-187500.0224,0.346,-0.068,0.93,192,0,0,0,0,0,0,0,0,0,0
 2023-06-27 18:17:17.504,-187500.0224,-187500.0224,-187500.0224,-178189.3808,-187500.0224,-184217.6463,-187500.0224,-187500.0224,0.346,-0.068,0.93,192,0,0,0,0,0,0,0,0,0,0
 2023-06-27 18:17:17.504,-187500.0224,-187500.0224,-187500.0224,-178601.3906,-187500.0224,-184969.7602,-187500.0224,-187500.0224,0.346,-0.068,0.93,192,0,0,0,0,0,0,0,0,0,0
 2023-06-27 18:17:17.504,-187500.0224,-187500.0224,-187500.0224,-179302.8106,-187500.0224,-186246.2012,-187500.0224,-187500.0224,0.346,-0.068,0.93,192,0,0,0,0,0,0,0,0,0,0
 2023-06-27 18:17:17.504,-187500.0224,-187500.0224,-187500.0224,-179316.0652,-187500.0224,-186261.4675,-187500.0224,-187500.0224,0.342,-0.068,0.924,192,10,176,253,224,28,224,0,0,0,0
 2023-06-27 18:17:17.505,-187500.0224,-187500.0224,-187500.0224,-178617.0815,-187500.0224,-184985.6076,-187500.0224,-187500.0224,0.342,-0.068,0.924,192,0,0,0,0,0,0,0,0,0,0
 2023-06-27 18:17:17.505,-187500.0224,-187500.0224,-187500.0224,-178192.7113,-187500.0224,-184222.6531,-187500.0224,-187500.0224,0.342,-0.068,0.924,192,0,0,0,0,0,0,0,0,0,0
 2023-06-27 18:17:17.505,-187500.0224,-187500.0224,-187500.0224,-178596.2273,-187500.0224,-184962.2276,-187500.0224,-187500.0224,0.342,-0.068,0.924,192,0,0,0,0,0,0,0,0,0,0
 2023-06-27 18:17:17.505,-187500.0224,-187500.0224,-187500.0224,-179300.4861,-187500.0224,-186242.4909,-187500.0224,-187500.0224,0.342,-0.068,0.924,192,0,0,0,0,0,0,0,0,0,0
 2023-06-27 18:17:17.505,-187500.0224,-187500.0224,-187500.0224,-179319.2168,-187500.0224,-186266.6307,-187500.0224,-187500.0224,0.342,-0.068,0.924,192,0,0,0,0,0,0,0,0,0,0
 2023-06-27 18:17:17.505,-187500.0224,-187500.0224,-187500.0224,-178621.9765,-187500.0224,-184994.4812,-187500.0224,-187500.0224,0.342,-0.068,0.924,192,0,0,0,0,0,0,0,0,0,0
 2023-06-27 18:17:17.505,-187500.0224,-187500.0224,-187500.0224,-178192.9571,-187500.0224,-184223.8154,-187500.0224,-187500.0224,0.342,-0.068,0.924,192,0,0,0,0,0,0,0,0,0,0
 2023-06-27 18:17:17.505,-187500.0224,-187500.0224,-187500.0224,-178592.3828,-187500.0224,-184954.9633,-187500.0224,-187500.0224,0.342,-0.068,0.924,192,0,0,0,0,0,0,0,0,0,0
 2023-06-27 18:17:17.505,-187500.0224,-187500.0224,-187500.0224,-179298.2956,-187500.0224,-186239.4063,-187500.0224,-187500.0224,0.342,-0.068,0.924,192,0,0,0,0,0,0,0,0,0,0
 2023-06-27 18:17:17.505,-187500.0224,-187500.0224,-187500.0224,-179320.2003,-187500.0224,-186270.6988,-187500.0224,-187500.0224,0.338,-0.066,0.926,192,10,144,253,240,28,240,0,0,0,0
 2023-06-27 18:17:17.505,-187500.0224,-187500.0224,-187500.0224,-178626.2233,-187500.0224,-185003.5113,-187500.0224,-187500.0224,0.338,-0.066,0.926,192,0,0,0,0,0,0,0,0,0,0
 2023-06-27 18:17:17.505,-187500.0224,-187500.0224,-187500.0224,-178195.1252,-187500.0224,-184228.3752,-187500.0224,-187500.0224,0.338,-0.066,0.926,192,0,0,0,0,0,0,0,0,0,0
 2023-06-27 18:17:17.505,-187500.0224,-187500.0224,-187500.0224,-178595.1321,-187500.0224,-184957.6232,-187500.0224,-187500.0224,0.338,-0.066,0.926,192,0,0,0,0,0,0,0,0,0,0
 2023-06-27 18:17:17.505,-187500.0224,-187500.0224,-187500.0224,-179302.4083,-187500.0224,-186243.3849,-187500.0224,-187500.0224,0.338,-0.066,0.926,192,0,0,0,0,0,0,0,0,0,0
