 Timestamp (Formatted), EXG Channel 0, EXG Channel 1, EXG Channel 2, EXG Channel 3, EXG Channel 4, EXG Channel 5, EXG Channel 6, EXG Channel 7, Accel Channel 0, Accel Channel 1, Accel Channel 2, Other, Other.1, Other.2, Other.3, Other.4, Other.5, Other.6, Analog Channel 0, Analog Channel 1, Analog Channel 2, Other.7
 2023-06-27 18:20:47.854,-187500.0224,-187500.0224,-187500.0224,-172270.4154,-184258.9524,-179530.1726,-187500.0224,-187500.0224,0.342,-0.072,0.926,192,0,0,0,0,0,0,0,0,0,0
 2023-06-27 18:20:47.854,-187500.0224,-187500.0224,-187500.0224,-172876.5277,-185172.5576,-180633.03,-187500.0224,-187500.0224,0.342,-0.072,0.926,192,0,0,0,0,0,0,0,0,0,0
 2023-06-27 18:20:47.854,-187500.0224,-187500.0224,-187500.0224,-172675.0714,-184705.6967,-180253.5421,-187500.0224,-187500.0224,0.342,-0.072,0.926,192,0,0,0,0,0,0,0,0,0,0
 2023-06-27 18:20:47.854,-187500.0224,-187500.0224,-187500.0224,-171887.8206,-183399.5278,-178810.6252,-187500.0224,-187500.0224,0.342,-0.072,0.926,192,0,0,0,0,0,0,0,0,0,0
 2023-06-27 18:20:47.854,-187500.0224,-187500.0224,-187500.0224,-171645.6171,-183132.4468,-178375.8167,-187500.0224,-187500.0224,0.342,-0.072,0.926,192,0,0,0,0,0,0,0,0,0,0
 2023-06-27 18:20:47.854,-187500.0224,-187500.0224,-187500.0224,-172259.0607,-184239.2381,-179508.7149,-187500.0224,-187500.0224,0.342,-0.072,0.926,192,0,0,0,0,0,0,0,0,0,0
 2023-06-27 18:20:47.854,-187500.0224,-187500.0224,-187500.0224,-172873.6443,-185170.5459,-180629.1408,-187500.0224,-187500.0224,0.346,-0.07,0.92,192,10,208,253,208,28,192,0,0,0,0
 2023-06-27 18:20:47.854,-187500.0224,-187500.0224,-187500.0224,-172681.6875,-184719.9347,-180268.9201,-187500.0224,-187500.0224,0.346,-0.07,0.92,192,0,0,0,0,0,0,0,0,0,0
 2023-06-27 18:20:47.854,-187500.0224,-187500.0224,-187500.0224,-171896.4707,-183412.4247,-178826.9644,-187500.0224,-187500.0224,0.346,-0.07,0.92,192,0,0,0,0,0,0,0,0,0,0
 2023-06-27 18:20:47.854,-187500.0224,-187500.0224,-187500.0224,-171645.103,-183127.82,-178372.7322,-187500.0224,-187500.0224,0.346,-0.07,0.92,192,0,0,0,0,0,0,0,0,0,0
 2023-06-27 18:20:47.854,-187500.0224,-187500.0224,-187500.0224,-172246.2085,-184220.4179,-179488.2854,-187500.0224,-187500.0224,0.346,-0.07,0.92,192,0,0,0,0,0,0,0,0,0,0
 2023-06-27 18:20:47.854,-187500.0224,-187500.0224,-187500.0224,-172869.8221,-185167.2602,-180624.5364,-187500.0224,-187500.0224,0.346,-0.07,0.92,192,0,0,0,0,0,0,0,0,0,0
 2023-06-27 18:20:47.854,-187500.0224,-187500.0224,-187500.0224,-172690.5835,-184735.5809,-180285.9521,-187500.0224,-187500.0224,0.346,-0.07,0.92,192,0,0,0,0,0,0,0,0,0,0
 2023-06-27 18:20:47.854,-187500.0224,-187500.0224,-187500.0224,-171906.8419,-183426.4169,-178844.4434,-187500.0224,-187500.0224,0.346,-0.07,0.92,192,0,0,0,0,0,0,0,0,0,0
 2023-06-27 18:20:47.854,-187500.0224,-187500.0224,-187500.0224,-171638.3528,-183115.6383,-178362.0257,-187500.0224,-187500.0224,0.346,-0.07,0.92,192,0,0,0,0,0,0,0,0,0,0
 2023-06-27 18:20:47.854,-187500.0224,-187500.0224,-187500.0224,-172226.9636,-184188.969,-179453.2379,-187500.0224,-187500.0224,0.346,-0.07,0.92,192,0,0,0,0,0,0,0,0,0,0
 2023-06-27 18:20:47.854,-187500.0224,-187500.0224,-187500.0224,-172860.792,-185157.4254,-180610.343,-187500.0224,-187500.0224,0.346,-0.064,0.924,192,10,208,254,0,28,224,0,0,0,0
 2023-06-27 18:20:47.854,-187500.0224,-187500.0224,-187500.0224,-172697.6466,-184749.9755,-180299.3632,-187500.0224,-187500.0224,0.346,-0.064,0.924,192,0,0,0,0,0,0,0,0,0,0
 2023-06-27 18:20:47.854,-187500.0224,-187500.0224,-187500.0224,-171914.3521,-183439.001,-178858.7932,-187500.0224,-187500.0224,0.346,-0.064,0.924,192,0,0,0,0,0,0,0,0,0,0
 2023-06-27 18:20:47.854,-187500.0224,-187500.0224,-187500.0224,-171636.6987,-183111.4361,-178358.2706,-187500.0224,-187500.0224,0.346,-0.064,0.924,192,0,0,0,0,0,0,0,0,0,0
 2023-06-27 18:20:47.854,-187500.0224,-187500.0224,-187500.0224,-172218.6711,-184175.0886,-179436.9882,-187500.0224,-187500.0224,0.346,-0.064,0.924,192,0,0,0,0,0,0,0,0,0,0
 2023-06-27 18:20:47.854,-187500.0224,-187500.0224,-187500.0224,-172862.4013,-185160.5547,-180611.3041,-187500.0224,-187500.0224,0.346,-0.064,0.924,192,0,0,0,0,0,0,0,0,0,0
 2023-06-27 18:20:47.854,-187500.0224,-187500.0224,-187500.0224,-172709.8283,-184770.0473,-180320.4856,-187500.0224,-187500.0224,0.346,-0.064,0.924,192,0,0,0,0,0,0,0,0,0,0
 2023-06-27 18:20:47.854,-187500.0224,-187500.0224,-187500.0224,-171923.7398,-183453.1496,-178876.697,-187500.0224,-187500.0224,0.346,-0.064,0.924,192,0,0,0,0,0,0,0,0,0,0
 2023-06-27 18:20:47.854,-187500.0224,-187500.0224,-187500.0224,-171633.3683,-183104.0601,-178352.9509,-187500.0224,-187500.0224,0.346,-0.064,0.924,192,0,0,0,0,0,0,0,0,0,0
 2023-06-27 18:20:47.854,-187500.0224,-187500.0224,-187500.0224,-172206.4671,-184153.9439,-179414.0329,-187500.0224,-187500.0224,0.346,-0.064,0.924,192,0,0,0,0,0,0,0,0,0,0
 2023-06-27 18:20:47.854,-187500.0224,-187500.0224,-187500.0224,-172859.585,-185157.6266,-180606.0291,-187500.0224,-187500.0224,0.346,-0.068,0.92,192,10,208,253,224,28,192,0,0,0,0
 2023-06-27 18:20:47.854,-187500.0224,-187500.0224,-187500.0224,-172719.2161,-184786.4982,-180337.4282,-187500.0224,-187500.0224,0.346,-0.068,0.92,192,0,0,0,0,0,0,0,0,0,0
 2023-06-27 18:20:47.854,-187500.0224,-187500.0224,-187500.0224,-171934.7816,-183468.9523,-178895.4054,-187500.0224,-187500.0224,0.346,-0.068,0.92,192,0,0,0,0,0,0,0,0,0,0
 2023-06-27 18:20:47.854,-187500.0224,-187500.0224,-187500.0224,-171632.0272,-183099.2097,-178349.397,-187500.0224,-187500.0224,0.346,-0.068,0.92,192,0,0,0,0,0,0,0,0,0,0
 2023-06-27 18:20:47.854,-187500.0224,-187500.0224,-187500.0224,-172195.0006,-184135.146,-179393.1787,-187500.0224,-187500.0224,0.346,-0.068,0.92,192,0,0,0,0,0,0,0,0,0,0
 2023-06-27 18:20:47.854,-187500.0224,-187500.0224,-187500.0224,-172858.378,-185156.5537,-180602.7658,-187500.0224,-187500.0224,0.346,-0.068,0.92,192,0,0,0,0,0,0,0,0,0,0
 2023-06-27 18:20:47.854,-187500.0224,-187500.0224,-187500.0224,-172729.185,-184803.9102,-180355.5778,-187500.0224,-187500.0224,0.346,-0.068,0.92,192,0,0,0,0,0,0,0,0,0,0
 2023-06-27 18:20:47.854,-187500.0224,-187500.0224,-187500.0224,-171946.0245,-183485.649,-178915.7008,-187500.0224,-187500.0224,0.346,-0.068,0.92,192,0,0,0,0,0,0,0,0,0,0
 2023-06-27 18:20:47.854,-187500.0224,-187500.0224,-187500.0224,-171633.9495,-183098.7627,-178351.2522,-187500.0224,-187500.0224,0.346,-0.068,0.92,192,0,0,0,0,0,0,0,0,0,0
 2023-06-27 18:20:47.854,-187500.0224,-187500.0224,-187500.0224,-172191.6702,-184126.2277,-179383.8134,-187500.0224,-187500.0224,0.346,-0.068,0.92,192,0,0,0,0,0,0,0,0,0,0
 2023-06-27 18:20:47.854,-187500.0224,-187500.0224,-187500.0224,-172861.999,-185160.4876,-180605.8726,-187500.0224,-187500.0224,0.344,-0.072,0.924,192,10,192,253,192,28,224,0,0,0,0
 2023-06-27 18:20:47.854,-187500.0224,-187500.0224,-187500.0224,-172742.5066,-184824.4291,-180377.7731,-187500.0224,-187500.0224,0.344,-0.072,0.924,192,0,0,0,0,0,0,0,0,0,0
 2023-06-27 18:20:47.854,-187500.0224,-187500.0224,-187500.0224,-171957.558,-183502.4129,-178936.8232,-187500.0224,-187500.0224,0.344,-0.072,0.924,192,0,0,0,0,0,0,0,0,0,0
 2023-06-27 18:20:47.854,-187500.0224,-187500.0224,-187500.0224,-171630.0826,-183090.1126,-178345.2843,-187500.0224,-187500.0224,0.344,-0.072,0.924,192,0,0,0,0,0,0,0,0,0,0
 2023-06-27 18:20:47.854,-187500.0224,-187500.0224,-187500.0224,-172171.8889,-184093.9294,-179349.2129,-187500.0224,-187500.0224,0.344,-0.072,0.924,192,0,0,0,0,0,0,0,0,0,0
 2023-06-27 18:20:47.854,-187500.0224,-187500.0224,-187500.0224,-172853.1477,-185149.6023,-180591.344,-187500.0224,-187500.0224,0.344,-0.072,0.924,192,0,0,0,0,0,0,0,0,0,0
 2023-06-27 18:20:47.854,-187500.0224,-187500.0224,-187500.0224,-172750.4191,-184839.0248,-180391.6535,-187500.0224,-187500.0224,0.344,-0.072,0.924,192,0,0,0,0,0,0,0,0,0,0
 2023-06-27 18:20:47.854,-187500.0224,-187500.0224,-187500.0224,-171970.9691,-183521.1883,-178957.6774,-187500.0224,-187500.0224,0.344,-0.072,0.924,192,0,0,0,0,0,0,0,0,0,0
 2023-06-27 18:20:47.854,-187500.0224,-187500.0224,-187500.0224,-171629.4344,-183085.5975,-178341.6633,-187500.0224,-187500.0224,0.344,-0.072,0.924,192,0,0,0,0,0,0,0,0,0,0
 2023-06-27 18:20:47.854,-187500.0224,-187500.0224,-187500.0224,-172160.6683,-184071.913,-179324.0448,-187500.0224,-187500.0224,0.344,-0.072,0.924,192,0,0,0,0,0,0,0,0,0,0
 2023-06-27 18:20:47.854,-187500.0224,-187500.0224,-187500.0224,-172846.1963,-185140.6616,-180577.9106,-187500.0224,-187500.0224,0.34,-0.062,0.924,192,10,160,254,16,28,224,0,0,0,0
 2023-06-27 18:20:47.854,-187500.0224,-187500.0224,-187500.0224,-172754.6436,-184850.4913,-180401.4659,-187500.0224,-187500.0224,0.34,-0.062,0.924,192,0,0,0,0,0,0,0,0,0,0
 2023-06-27 18:20:47.854,-187500.0224,-187500.0224,-187500.0224,-171978.8816,-183535.8511,-178974.3294,-187500.0224,-187500.0224,0.34,-0.062,0.924,192,0,0,0,0,0,0,0,0,0,0
 2023-06-27 18:20:47.854,-187500.0224,-187500.0224,-187500.0224,-171626.3722,-183081.2836,-178338.534,-187500.0224,-187500.0224,0.34,-0.062,0.924,192,0,0,0,0,0,0,0,0,0,0
 2023-06-27 18:20:47.854,-187500.0224,-187500.0224,-187500.0224,-172144.3516,-184049.4942,-179299.9273,-187500.0224,-187500.0224,0.34,-0.062,0.924,192,0,0,0,0,0,0,0,0,0,0
 2023-06-27 18:20:47.854,-187500.0224,-187500.0224,-187500.0224,-172840.3178,-185135.1631,-180570.2887,-187500.0224,-187500.0224,0.34,-0.062,0.924,192,0,0,0,0,0,0,0,0,0,0
 2023-06-27 18:20:47.854,-187500.0224,-187500.0224,-187500.0224,-172765.0819,-184868.7303,-180420.6661,-187500.0224,-187500.0224,0.34,-0.062,0.924,192,0,0,0,0,0,0,0,0,0,0
 2023-06-27 18:20:47.855,-187500.0224,-187500.0224,-187500.0224,-171988.1799,-183551.3855,-178993.7754,-187500.0224,-187500.0224,0.34,-0.062,0.924,192,0,0,0,0,0,0,0,0,0,0
 2023-06-27 18:20:47.855,-187500.0224,-187500.0224,-187500.0224,-171620.4043,-183071.2477,-178330.7109,-187500.0224,-187500.0224,0.34,-0.062,0.924,192,0,0,0,0,0,0,0,0,0,0
 2023-06-27 18:20:47.855,-187500.0224,-187500.0224,-187500.0224,-172128.7947,-184024.3484,-179273.0828,-187500.0224,-187500.0224,0.34,-0.062,0.924,192,0,0,0,0,0,0,0,0,0,0
 2023-06-27 18:20:47.855,-187500.0224,-187500.0224,-187500.0224,-172832.383,-185125.6189,-180558.2187,-187500.0224,-187500.0224,0.34,-0.062,0.924,192,10,160,254,16,28,224,0,0,0,0
 2023-06-27 18:20:47.855,-187500.0224,-187500.0224,-187500.0224,-172768.2111,-184878.0286,-180429.875,-187500.0224,-187500.0224,0.34,-0.062,0.924,192,0,0,0,0,0,0,0,0,0,0
 2023-06-27 18:20:47.855,-187500.0224,-187500.0224,-187500.0224,-171996.0924,-183564.7966,-179010.1369,-187500.0224,-187500.0224,0.34,-0.062,0.924,192,0,0,0,0,0,0,0,0,0,0
 2023-06-27 18:20:47.855,-187500.0224,-187500.0224,-187500.0224,-171620.5384,-183068.7667,-178329.9957,-187500.0224,-187500.0224,0.34,-0.062,0.924,192,0,0,0,0,0,0,0,0,0,0
 2023-06-27 18:20:47.855,-187500.0224,-187500.0224,-187500.0224,-172120.6587,-184008.6799,-179255.872,-187500.0224,-187500.0224,0.34,-0.062,0.924,192,0,0,0,0,0,0,0,0,0,0
 2023-06-27 18:20:47.855,-187500.0224,-187500.0224,-187500.0224,-172826.1468,-185118.444,-180548.6075,-187500.0224,-187500.0224,0.34,-0.062,0.924,192,0,0,0,0,0,0,0,0,0,0
 2023-06-27 18:20:47.855,-187500.0224,-187500.0224,-187500.0224,-172776.4142,-184893.3843,-180445.4318,-187500.0224,-187500.0224,0.34,-0.062,0.924,192,0,0,0,0,0,0,0,0,0,0
 2023-06-27 18:20:47.855,-187500.0224,-187500.0224,-187500.0224,-172008.6094,-183583.6391,-179032.2875,-187500.0224,-187500.0224,0.34,-0.062,0.924,192,0,0,0,0,0,0,0,0,0,0
 2023-06-27 18:20:47.855,-187500.0224,-187500.0224,-187500.0224,-171620.7619,-183066.9785,-178330.8003,-187500.0224,-187500.0224,0.34,-0.062,0.924,192,0,0,0,0,0,0,0,0,0,0
 2023-06-27 18:20:47.855,-187500.0224,-187500.0224,-187500.0224,-172108.8123,-183988.988,-179235.5989,-187500.0224,-187500.0224,0.34,-0.062,0.924,192,0,0,0,0,0,0,0,0,0,0
 2023-06-27 18:20:47.855,-187500.0224,-187500.0224,-187500.0224,-172822.1906,-185112.9455,-180541.2538,-187500.0224,-187500.0224,0.344,-0.06,0.92,192,10,192,254,32,28,192,0,0,0,0
 2023-06-27 18:20:47.855,-187500.0224,-187500.0224,-187500.0224,-172782.0468,-184904.9178,-180457.5465,-187500.0224,-187500.0224,0.344,-0.06,0.92,192,0,0,0,0,0,0,0,0,0,0
 2023-06-27 18:20:47.855,-187500.0224,-187500.0224,-187500.0224,-172022.3557,-183603.2192,-179055.4886,-187500.0224,-187500.0224,0.344,-0.06,0.92,192,0,0,0,0,0,0,0,0,0,0
 2023-06-27 18:20:47.855,-187500.0224,-187500.0224,-187500.0224,-171622.6618,-183064.9892,-178331.0686,-187500.0224,-187500.0224,0.344,-0.06,0.92,192,0,0,0,0,0,0,0,0,0,0
 2023-06-27 18:20:48.334,-187500.0224,-187500.0224,-187500.0224,-172095.0883,-183964.6022,-179209.2239,-187500.0224,-187500.0224,0.344,-0.06,0.92,192,0,0,0,0,0,0,0,0,0,0
 2023-06-27 18:20:48.334,-187500.0224,-187500.0224,-187500.0224,-172817.6308,-185106.5529,-180531.6201,-187500.0224,-187500.0224,0.344,-0.06,0.92,192,0,0,0,0,0,0,0,0,0,0
 2023-06-27 18:20:48.334,-187500.0224,-187500.0224,-187500.0224,-172789.6017,-184919.357,-180471.6951,-187500.0224,-187500.0224,0.344,-0.06,0.92,192,0,0,0,0,0,0,0,0,0,0
 2023-06-27 18:20:48.334,-187500.0224,-187500.0224,-187500.0224,-172032.2352,-183619.9383,-179075.3369,-187500.0224,-187500.0224,0.344,-0.06,0.92,192,0,0,0,0,0,0,0,0,0,0
 2023-06-27 18:20:48.334,-187500.0224,-187500.0224,-187500.0224,-171621.0749,-183060.9659,-178329.0122,-187500.0224,-187500.0224,0.344,-0.06,0.92,192,0,0,0,0,0,0,0,0,0,0
 2023-06-27 18:20:48.334,-187500.0224,-187500.0224,-187500.0224,-172082.7054,-183944.6868,-179187.878,-187500.0224,-187500.0224,0.344,-0.06,0.92,192,0,0,0,0,0,0,0,0,0,0
 2023-06-27 18:20:48.334,-187500.0224,-187500.0224,-187500.0224,-172810.59,-185098.1933,-180520.8243,-187500.0224,-187500.0224,0.336,-0.066,0.922,192,10,128,253,240,28,208,0,0,0,0
 2023-06-27 18:20:48.334,-187500.0224,-187500.0224,-187500.0224,-172796.3072,-184932.321,-180484.3686,-187500.0224,-187500.0224,0.336,-0.066,0.922,192,0,0,0,0,0,0,0,0,0,0
 2023-06-27 18:20:48.334,-187500.0224,-187500.0224,-187500.0224,-172043.724,-183637.6186,-179095.9453,-187500.0224,-187500.0224,0.336,-0.066,0.922,192,0,0,0,0,0,0,0,0,0,0
 2023-06-27 18:20:48.334,-187500.0224,-187500.0224,-187500.0224,-171621.4548,-183059.1107,-178329.4592,-187500.0224,-187500.0224,0.336,-0.066,0.922,192,0,0,0,0,0,0,0,0,0,0
 2023-06-27 18:20:48.334,-187500.0224,-187500.0224,-187500.0224,-172071.1049,-183923.9221,-179165.9956,-187500.0224,-187500.0224,0.336,-0.066,0.922,192,0,0,0,0,0,0,0,0,0,0
 2023-06-27 18:20:48.334,-187500.0224,-187500.0224,-187500.0224,-172806.522,-185091.8007,-180511.9059,-187500.0224,-187500.0224,0.336,-0.066,0.922,192,0,0,0,0,0,0,0,0,0,0
 2023-06-27 18:20:48.334,-187500.0224,-187500.0224,-187500.0224,-172807.1925,-184948.7719,-180500.8641,-187500.0224,-187500.0224,0.336,-0.066,0.922,192,0,0,0,0,0,0,0,0,0,0
 2023-06-27 18:20:48.334,-187500.0224,-187500.0224,-187500.0224,-172059.1467,-183660.4397,-179122.2309,-187500.0224,-187500.0224,0.336,-0.066,0.922,192,0,0,0,0,0,0,0,0,0,0
 2023-06-27 18:20:48.334,-187500.0224,-187500.0224,-187500.0224,-171624.1147,-183060.4295,-178333.5272,-187500.0224,-187500.0224,0.336,-0.066,0.922,192,0,0,0,0,0,0,0,0,0,0
 2023-06-27 18:20:48.334,-187500.0224,-187500.0224,-187500.0224,-172065.5617,-183910.7569,-179152.2493,-187500.0224,-187500.0224,0.336,-0.066,0.922,192,0,0,0,0,0,0,0,0,0,0
 2023-06-27 18:20:48.334,-187500.0224,-187500.0224,-187500.0224,-172804.6444,-185087.9562,-180506.3403,-187500.0224,-187500.0224,0.334,-0.066,0.93,192,10,112,253,240,29,16,0,0,0,0
 2023-06-27 18:20:48.334,-187500.0224,-187500.0224,-187500.0224,-172815.2168,-184962.1606,-180514.4987,-187500.0224,-187500.0224,0.334,-0.066,0.93,192,0,0,0,0,0,0,0,0,0,0
 2023-06-27 18:20:48.334,-187500.0224,-187500.0224,-187500.0224,-172071.8201,-183679.1705,-179144.3368,-187500.0224,-187500.0224,0.334,-0.066,0.93,192,0,0,0,0,0,0,0,0,0,0
 2023-06-27 18:20:48.334,-187500.0224,-187500.0224,-187500.0224,-171621.4772,-183055.0874,-178330.6886,-187500.0224,-187500.0224,0.334,-0.066,0.93,192,0,0,0,0,0,0,0,0,0,0
 2023-06-27 18:20:48.334,-187500.0224,-187500.0224,-187500.0224,-172046.7638,-183882.1466,-179122.3427,-187500.0224,-187500.0224,0.334,-0.066,0.93,192,0,0,0,0,0,0,0,0,0,0
 2023-06-27 18:20:48.334,-187500.0224,-187500.0224,-187500.0224,-172793.6027,-185074.2099,-180489.3306,-187500.0224,-187500.0224,0.334,-0.066,0.93,192,0,0,0,0,0,0,0,0,0,0
 2023-06-27 18:20:48.334,-187500.0224,-187500.0224,-187500.0224,-172819.933,-184972.4647,-180523.8194,-187500.0224,-187500.0224,0.334,-0.066,0.93,192,0,0,0,0,0,0,0,0,0,0
 2023-06-27 18:20:48.334,-187500.0224,-187500.0224,-187500.0224,-172080.8055,-183693.9897,-179161.2123,-187500.0224,-187500.0224,0.334,-0.066,0.93,192,0,0,0,0,0,0,0,0,0,0
 2023-06-27 18:20:48.334,-187500.0224,-187500.0224,-187500.0224,-171618.035,-183049.0524,-178325.8606,-187500.0224,-187500.0224,0.334,-0.066,0.93,192,0,0,0,0,0,0,0,0,0,0
 2023-06-27 18:20:48.334,-187500.0224,-187500.0224,-187500.0224,-172032.3023,-183858.8785,-179096.8393,-187500.0224,-187500.0224,0.334,-0.066,0.93,192,0,0,0,0,0,0,0,0,0,0
 2023-06-27 18:20:48.334,-187500.0224,-187500.0224,-187500.0224,-172786.0478,-185064.0175,-180475.4502,-187500.0224,-187500.0224,0.344,-0.064,0.932,192,10,192,254,0,29,32,0,0,0,0
 2023-06-27 18:20:48.334,-187500.0224,-187500.0224,-187500.0224,-172824.0011,-184982.0089,-180531.7766,-187500.0224,-187500.0224,0.344,-0.064,0.932,192,0,0,0,0,0,0,0,0,0,0
 2023-06-27 18:20:48.334,-187500.0224,-187500.0224,-187500.0224,-172090.3497,-183710.4629,-179179.429,-187500.0224,-187500.0224,0.344,-0.064,0.932,192,0,0,0,0,0,0,0,0,0,0
 2023-06-27 18:20:48.334,-187500.0224,-187500.0224,-187500.0224,-171620.9855,-183049.5889,-178327.3805,-187500.0224,-187500.0224,0.344,-0.064,0.932,192,0,0,0,0,0,0,0,0,0,0
 2023-06-27 18:20:48.335,-187500.0224,-187500.0224,-187500.0224,-172025.6638,-183843.3217,-179078.645,-187500.0224,-187500.0224,0.344,-0.064,0.932,192,0,0,0,0,0,0,0,0,0,0
 2023-06-27 18:20:48.335,-187500.0224,-187500.0224,-187500.0224,-172780.9069,-185056.932,-180464.3414,-187500.0224,-187500.0224,0.344,-0.064,0.932,192,0,0,0,0,0,0,0,0,0,0
 2023-06-27 18:20:48.335,-187500.0224,-187500.0224,-187500.0224,-172827.7338,-184991.7096,-180539.7785,-187500.0224,-187500.0224,0.344,-0.064,0.932,192,0,0,0,0,0,0,0,0,0,0
 2023-06-27 18:20:48.335,-187500.0224,-187500.0224,-187500.0224,-172099.9163,-183727.5843,-179198.2492,-187500.0224,-187500.0224,0.344,-0.064,0.932,192,0,0,0,0,0,0,0,0,0,0
 2023-06-27 18:20:48.335,-187500.0224,-187500.0224,-187500.0224,-171622.4383,-183051.9805,-178331.5156,-187500.0224,-187500.0224,0.344,-0.064,0.932,192,0,0,0,0,0,0,0,0,0,0
 2023-06-27 18:20:48.335,-187500.0224,-187500.0224,-187500.0224,-172023.451,-183840.6171,-179076.5216,-187500.0224,-187500.0224,0.344,-0.064,0.932,192,0,0,0,0,0,0,0,0,0,0
 2023-06-27 18:20:48.335,-187500.0224,-187500.0224,-187500.0224,-172781.421,-185058.6754,-180466.8448,-187500.0224,-187500.0224,0.34,-0.068,0.926,192,10,160,253,224,28,240,0,0,0,0
 2023-06-27 18:20:48.335,-187500.0224,-187500.0224,-187500.0224,-172837.4121,-185007.0876,-180557.5482,-187500.0224,-187500.0224,0.34,-0.068,0.926,192,0,0,0,0,0,0,0,0,0,0
 2023-06-27 18:20:48.335,-187500.0224,-187500.0224,-187500.0224,-172117.5518,-183751.8807,-179227.6641,-187500.0224,-187500.0224,0.34,-0.068,0.926,192,0,0,0,0,0,0,0,0,0,0
 2023-06-27 18:20:48.335,-187500.0224,-187500.0224,-187500.0224,-171628.7639,-183057.2332,-178341.0821,-187500.0224,-187500.0224,0.34,-0.068,0.926,192,0,0,0,0,0,0,0,0,0,0
 2023-06-27 18:20:48.335,-187500.0224,-187500.0224,-187500.0224,-172015.4938,-183825.0603,-179062.1271,-187500.0224,-187500.0224,0.34,-0.068,0.926,192,0,0,0,0,0,0,0,0,0,0
 2023-06-27 18:20:48.335,-187500.0224,-187500.0224,-187500.0224,-172778.8058,-185053.6686,-180461.3016,-187500.0224,-187500.0224,0.34,-0.068,0.926,192,0,0,0,0,0,0,0,0,0,0
 2023-06-27 18:20:48.335,-187500.0224,-187500.0224,-187500.0224,-172846.7998,-185021.1021,-180573.0156,-187500.0224,-187500.0224,0.34,-0.068,0.926,192,0,0,0,0,0,0,0,0,0,0
 2023-06-27 18:20:48.335,-187500.0224,-187500.0224,-187500.0224,-172131.2311,-183772.3996,-179252.7427,-187500.0224,-187500.0224,0.34,-0.068,0.926,192,0,0,0,0,0,0,0,0,0,0
 2023-06-27 18:20:48.335,-187500.0224,-187500.0224,-187500.0224,-171631.9378,-183059.0884,-178347.2959,-187500.0224,-187500.0224,0.34,-0.068,0.926,192,0,0,0,0,0,0,0,0,0,0
 2023-06-27 18:20:48.335,-187500.0224,-187500.0224,-187500.0224,-172007.1566,-183808.14,-179046.2126,-187500.0224,-187500.0224,0.34,-0.068,0.926,192,0,0,0,0,0,0,0,0,0,0
 2023-06-27 18:20:48.335,-187500.0224,-187500.0224,-187500.0224,-172773.7543,-185045.1526,-180451.8915,-187500.0224,-187500.0224,0.344,-0.072,0.926,192,10,192,253,192,28,240,0,0,0,0
 2023-06-27 18:20:48.335,-187500.0224,-187500.0224,-187500.0224,-172853.7065,-185032.4121,-180585.1302,-187500.0224,-187500.0224,0.344,-0.072,0.926,192,0,0,0,0,0,0,0,0,0,0
 2023-06-27 18:20:48.335,-187500.0224,-187500.0224,-187500.0224,-172142.5634,-183790.2586,-179274.7592,-187500.0224,-187500.0224,0.344,-0.072,0.926,192,0,0,0,0,0,0,0,0,0,0
 2023-06-27 18:20:48.335,-187500.0224,-187500.0224,-187500.0224,-171632.0049,-183056.6297,-178348.3912,-187500.0224,-187500.0224,0.344,-0.072,0.926,192,0,0,0,0,0,0,0,0,0,0
 2023-06-27 18:20:48.335,-187500.0224,-187500.0224,-187500.0224,-171996.6959,-183788.1799,-179026.096,-187500.0224,-187500.0224,0.344,-0.072,0.926,192,0,0,0,0,0,0,0,0,0,0
 2023-06-27 18:20:48.335,-187500.0224,-187500.0224,-187500.0224,-172767.6076,-185034.9155,-180439.4192,-187500.0224,-187500.0224,0.344,-0.072,0.926,192,0,0,0,0,0,0,0,0,0,0
 2023-06-27 18:20:48.335,-187500.0224,-187500.0224,-187500.0224,-172856.6346,-185039.52,-180591.5452,-187500.0224,-187500.0224,0.344,-0.072,0.926,192,0,0,0,0,0,0,0,0,0,0
 2023-06-27 18:20:48.336,-187500.0224,-187500.0224,-187500.0224,-172156.3544,-183811.001,-179298.2062,-187500.0224,-187500.0224,0.344,-0.072,0.926,192,0,0,0,0,0,0,0,0,0,0
 2023-06-27 18:20:48.336,-187500.0224,-187500.0224,-187500.0224,-171634.5083,-183057.412,-178351.5875,-187500.0224,-187500.0224,0.344,-0.072,0.926,192,0,0,0,0,0,0,0,0,0,0
 2023-06-27 18:20:48.336,-187500.0224,-187500.0224,-187500.0224,-171981.0497,-183761.7154,-178998.1787,-187500.0224,-187500.0224,0.344,-0.072,0.926,192,0,0,0,0,0,0,0,0,0,0
 2023-06-27 18:20:48.336,-187500.0224,-187500.0224,-187500.0224,-172756.9682,-185020.1187,-180420.4202,-187500.0224,-187500.0224,0.344,-0.072,0.926,192,0,0,0,0,0,0,0,0,0,0
 2023-06-27 18:20:48.336,-187500.0224,-187500.0224,-187500.0224,-172861.7308,-185049.7794,-180599.86,-187500.0224,-187500.0224,0.34,-0.072,0.92,192,10,160,253,192,28,192,0,0,0,0
 2023-06-27 18:20:48.336,-187500.0224,-187500.0224,-187500.0224,-172168.5361,-183830.8941,-179319.7533,-187500.0224,-187500.0224,0.34,-0.072,0.92,192,0,0,0,0,0,0,0,0,0,0
 2023-06-27 18:20:48.336,-187500.0224,-187500.0224,-187500.0224,-171638.7327,-183060.2506,-178355.7672,-187500.0224,-187500.0224,0.34,-0.072,0.92,192,0,0,0,0,0,0,0,0,0,0
 2023-06-27 18:20:48.336,-187500.0224,-187500.0224,-187500.0224,-171967.7281,-183736.838,-178970.4849,-187500.0224,-187500.0224,0.34,-0.072,0.92,192,0,0,0,0,0,0,0,0,0,0
 2023-06-27 18:20:48.336,-187500.0224,-187500.0224,-187500.0224,-172742.4395,-184999.2868,-180393.6428,-187500.0224,-187500.0224,0.34,-0.072,0.92,192,0,0,0,0,0,0,0,0,0,0
 2023-06-27 18:20:48.336,-187500.0224,-187500.0224,-187500.0224,-172858.2439,-185049.6453,-180595.3226,-187500.0224,-187500.0224,0.34,-0.072,0.92,192,0,0,0,0,0,0,0,0,0,0
 2023-06-27 18:20:48.336,-187500.0224,-187500.0224,-187500.0224,-172170.8384,-183840.5724,-179328.8057,-187500.0224,-187500.0224,0.34,-0.072,0.92,192,0,0,0,0,0,0,0,0,0,0
 2023-06-27 18:20:48.336,-187500.0224,-187500.0224,-187500.0224,-171629.9709,-183049.2983,-178344.0326,-187500.0224,-187500.0224,0.34,-0.072,0.92,192,0,0,0,0,0,0,0,0,0,0
 2023-06-27 18:20:48.336,-187500.0224,-187500.0224,-187500.0224,-171946.4716,-183702.5504,-178930.9,-187500.0224,-187500.0224,0.34,-0.072,0.92,192,0,0,0,0,0,0,0,0,0,0
 2023-06-27 18:20:48.336,-187500.0224,-187500.0224,-187500.0224,-172725.2734,-184976.1528,-180361.5904,-187500.0224,-187500.0224,0.34,-0.072,0.92,192,0,0,0,0,0,0,0,0,0,0
 2023-06-27 18:20:48.336,-187500.0224,-187500.0224,-187500.0224,-172856.7911,-185052.7075,-180591.7463,-187500.0224,-187500.0224,0.34,-0.072,0.924,192,10,160,253,192,28,224,0,0,0,0
 2023-06-27 18:20:48.336,-187500.0224,-187500.0224,-187500.0224,-172179.712,-183856.8445,-179342.3509,-187500.0224,-187500.0224,0.34,-0.072,0.924,192,0,0,0,0,0,0,0,0,0,0
 2023-06-27 18:20:48.336,-187500.0224,-187500.0224,-187500.0224,-171628.518,-183046.3702,-178338.2882,-187500.0224,-187500.0224,0.34,-0.072,0.924,192,0,0,0,0,0,0,0,0,0,0
 2023-06-27 18:20:48.336,-187500.0224,-187500.0224,-187500.0224,-171931.6747,-183680.4221,-178902.8709,-187500.0224,-187500.0224,0.34,-0.072,0.924,192,0,0,0,0,0,0,0,0,0,0
 2023-06-27 18:20:48.336,-187500.0224,-187500.0224,-187500.0224,-172711.8176,-184958.9866,-180336.5565,-187500.0224,-187500.0224,0.34,-0.072,0.924,192,0,0,0,0,0,0,0,0,0,0
 2023-06-27 18:20:48.336,-187500.0224,-187500.0224,-187500.0224,-172853.1254,-185052.6404,-180585.1079,-187500.0224,-187500.0224,0.34,-0.072,0.924,192,0,0,0,0,0,0,0,0,0,0
 2023-06-27 18:20:48.336,-187500.0224,-187500.0224,-187500.0224,-172184.4953,-183868.5568,-179350.4869,-187500.0224,-187500.0224,0.34,-0.072,0.924,192,0,0,0,0,0,0,0,0,0,0
 2023-06-27 18:20:48.336,-187500.0224,-187500.0224,-187500.0224,-171621.3878,-183038.1224,-178326.1735,-187500.0224,-187500.0224,0.34,-0.072,0.924,192,0,0,0,0,0,0,0,0,0,0
 2023-06-27 18:20:48.336,-187500.0224,-187500.0224,-187500.0224,-171911.0888,-183651.7225,-178867.3093,-187500.0224,-187500.0224,0.34,-0.072,0.924,192,0,0,0,0,0,0,0,0,0,0
 2023-06-27 18:20:48.336,-187500.0224,-187500.0224,-187500.0224,-172698.5854,-184942.3346,-180310.7849,-187500.0224,-187500.0224,0.34,-0.072,0.924,192,0,0,0,0,0,0,0,0,0,0
 2023-06-27 18:20:48.336,-187500.0224,-187500.0224,-187500.0224,-172853.3936,-185058.7201,-180583.9679,-187500.0224,-187500.0224,0.338,-0.07,0.92,192,10,144,253,208,28,192,0,0,0,0
 2023-06-27 18:20:48.336,-187500.0224,-187500.0224,-187500.0224,-172190.9326,-183884.8289,-179363.6968,-187500.0224,-187500.0224,0.338,-0.07,0.92,192,0,0,0,0,0,0,0,0,0,0
 2023-06-27 18:20:48.336,-187500.0224,-187500.0224,-187500.0224,-171617.1186,-183036.2225,-178322.1949,-187500.0224,-187500.0224,0.338,-0.07,0.92,192,0,0,0,0,0,0,0,0,0,0
 2023-06-27 18:20:48.336,-187500.0224,-187500.0224,-187500.0224,-171894.4591,-183627.8285,-178838.3414,-187500.0224,-187500.0224,0.338,-0.07,0.92,192,0,0,0,0,0,0,0,0,0,0
 2023-06-27 18:20:48.336,-187500.0224,-187500.0224,-187500.0224,-172683.0733,-184924.2744,-180285.2145,-187500.0224,-187500.0224,0.338,-0.07,0.92,192,0,0,0,0,0,0,0,0,0,0
 2023-06-27 18:20:48.336,-187500.0224,-187500.0224,-187500.0224,-172855.0923,-185067.5714,-180587.9465,-187500.0224,-187500.0224,0.338,-0.07,0.92,192,0,0,0,0,0,0,0,0,0,0
 2023-06-27 18:20:48.336,-187500.0224,-187500.0224,-187500.0224,-172201.6838,-183905.2136,-179382.7405,-187500.0224,-187500.0224,0.338,-0.07,0.92,192,0,0,0,0,0,0,0,0,0,0
 2023-06-27 18:20:48.336,-187500.0224,-187500.0224,-187500.0224,-171619.4879,-183040.7823,-178325.503,-187500.0224,-187500.0224,0.338,-0.07,0.92,192,0,0,0,0,0,0,0,0,0,0
 2023-06-27 18:20:48.337,-187500.0224,-187500.0224,-187500.0224,-171886.2336,-183615.7138,-178823.2093,-187500.0224,-187500.0224,0.338,-0.07,0.92,192,0,0,0,0,0,0,0,0,0,0
 2023-06-27 18:20:48.337,-187500.0224,-187500.0224,-187500.0224,-172676.9266,-184918.7088,-180275.6256,-187500.0224,-187500.0224,0.338,-0.07,0.92,192,0,0,0,0,0,0,0,0,0,0
 2023-06-27 18:20:48.337,-187500.0224,-187500.0224,-187500.0224,-172860.6132,-185081.3177,-180600.1282,-187500.0224,-187500.0224,0.34,-0.066,0.918,192,10,160,253,240,28,176,0,0,0,0
 2023-06-27 18:20:48.337,-187500.0224,-187500.0224,-187500.0224,-172215.5419,-183929.6441,-179409.4955,-187500.0224,-187500.0224,0.34,-0.066,0.918,192,0,0,0,0,0,0,0,0,0,0
 2023-06-27 18:20:48.337,-187500.0224,-187500.0224,-187500.0224,-171621.7231,-183044.1574,-178331.5826,-187500.0224,-187500.0224,0.34,-0.066,0.918,192,0,0,0,0,0,0,0,0,0,0
 2023-06-27 18:20:48.337,-187500.0224,-187500.0224,-187500.0224,-171874.4319,-183596.9384,-178803.7409,-187500.0224,-187500.0224,0.34,-0.066,0.918,192,0,0,0,0,0,0,0,0,0,0
 2023-06-27 18:20:48.337,-187500.0224,-187500.0224,-187500.0224,-172670.5563,-184910.461,-180264.785,-187500.0224,-187500.0224,0.34,-0.066,0.918,192,0,0,0,0,0,0,0,0,0,0
 2023-06-27 18:20:48.337,-187500.0224,-187500.0224,-187500.0224,-172865.173,-185093.2759,-180611.9523,-187500.0224,-187500.0224,0.34,-0.066,0.918,192,0,0,0,0,0,0,0,0,0,0
 2023-06-27 18:20:48.337,-187500.0224,-187500.0224,-187500.0224,-172228.8188,-183954.2087,-179438.0834,-187500.0224,-187500.0224,0.34,-0.066,0.918,192,0,0,0,0,0,0,0,0,0,0
 2023-06-27 18:20:48.337,-187500.0224,-187500.0224,-187500.0224,-171628.4062,-183052.584,-178344.4349,-187500.0224,-187500.0224,0.34,-0.066,0.918,192,0,0,0,0,0,0,0,0,0,0
 2023-06-27 18:20:48.337,-187500.0224,-187500.0224,-187500.0224,-171870.878,-183588.4671,-178797.0577,-187500.0224,-187500.0224,0.34,-0.066,0.918,192,0,0,0,0,0,0,0,0,0,0
 2023-06-27 18:20:48.337,-187500.0224,-187500.0224,-187500.0224,-172666.7565,-184906.1024,-180260.8064,-187500.0224,-187500.0224,0.34,-0.066,0.918,192,0,0,0,0,0,0,0,0,0,0
 2023-06-27 18:20:48.337,-187500.0224,-187500.0224,-187500.0224,-172875.0748,-185109.168,-180630.169,-187500.0224,-187500.0224,0.344,-0.064,0.92,192,10,192,254,0,28,192,0,0,0,0
 2023-06-27 18:20:48.337,-187500.0224,-187500.0224,-187500.0224,-172249.0695,-183981.5001,-179470.3817,-187500.0224,-187500.0224,0.344,-0.064,0.92,192,0,0,0,0,0,0,0,0,0,0
 2023-06-27 18:20:48.337,-187500.0224,-187500.0224,-187500.0224,-171635.8494,-183058.0378,-178353.7332,-187500.0224,-187500.0224,0.344,-0.064,0.92,192,0,0,0,0,0,0,0,0,0,0
 2023-06-27 18:20:48.337,-187500.0224,-187500.0224,-187500.0224,-171864.5748,-183573.6702,-178782.4844,-187500.0224,-187500.0224,0.344,-0.064,0.92,192,0,0,0,0,0,0,0,0,0,0
 2023-06-27 18:20:48.337,-187500.0224,-187500.0224,-187500.0224,-172663.4261,-184898.704,-180251.2175,-187500.0224,-187500.0224,0.344,-0.064,0.92,192,0,0,0,0,0,0,0,0,0,0
 2023-06-27 18:20:48.337,-187500.0224,-187500.0224,-187500.0224,-172881.0204,-185118.9804,-180639.2438,-187500.0224,-187500.0224,0.344,-0.064,0.92,192,0,0,0,0,0,0,0,0,0,0
 2023-06-27 18:20:48.337,-187500.0224,-187500.0224,-187500.0224,-172259.9324,-184000.3874,-179491.9735,-187500.0224,-187500.0224,0.344,-0.064,0.92,192,0,0,0,0,0,0,0,0,0,0
 2023-06-27 18:20:48.337,-187500.0224,-187500.0224,-187500.0224,-171637.8387,-183060.0942,-178358.8741,-187500.0224,-187500.0224,0.344,-0.064,0.92,192,0,0,0,0,0,0,0,0,0,0
 2023-06-27 18:20:48.337,-187500.0224,-187500.0224,-187500.0224,-171852.8401,-183555.3418,-178764.3795,-187500.0224,-187500.0224,0.344,-0.064,0.92,192,0,0,0,0,0,0,0,0,0,0
 2023-06-27 18:20:48.337,-187500.0224,-187500.0224,-187500.0224,-172654.776,-184887.014,-180237.9182,-187500.0224,-187500.0224,0.344,-0.064,0.92,192,0,0,0,0,0,0,0,0,0,0
 2023-06-27 18:20:48.337,-187500.0224,-187500.0224,-187500.0224,-172885.4013,-185126.7588,-180646.6199,-187500.0224,-187500.0224,0.346,-0.066,0.92,192,10,208,253,240,28,192,0,0,0,0
 2023-06-27 18:20:48.337,-187500.0224,-187500.0224,-187500.0224,-172272.5835,-184020.8169,-179515.1299,-187500.0224,-187500.0224,0.346,-0.066,0.92,192,0,0,0,0,0,0,0,0,0,0
 2023-06-27 18:20:48.337,-187500.0224,-187500.0224,-187500.0224,-171637.414,-183057.9708,-178359.3435,-187500.0224,-187500.0224,0.346,-0.066,0.92,192,0,0,0,0,0,0,0,0,0,0
 2023-06-27 18:20:48.337,-187500.0224,-187500.0224,-187500.0224,-171841.2619,-183532.0066,-178739.4573,-187500.0224,-187500.0224,0.346,-0.066,0.92,192,0,0,0,0,0,0,0,0,0,0
 2023-06-27 18:20:48.337,-187500.0224,-187500.0224,-187500.0224,-172647.2211,-184872.9324,-180218.5616,-187500.0224,-187500.0224,0.346,-0.066,0.92,192,0,0,0,0,0,0,0,0,0,0
 2023-06-27 18:20:48.337,-187500.0224,-187500.0224,-187500.0224,-172889.2234,-185135.029,-180651.4031,-187500.0224,-187500.0224,0.346,-0.066,0.92,192,0,0,0,0,0,0,0,0,0,0
 2023-06-27 18:20:48.337,-187500.0224,-187500.0224,-187500.0224,-172287.1569,-184044.6438,-179539.4709,-187500.0224,-187500.0224,0.346,-0.066,0.92,192,0,0,0,0,0,0,0,0,0,0
 2023-06-27 18:20:48.337,-187500.0224,-187500.0224,-187500.0224,-171646.4441,-183068.5208,-178371.1005,-187500.0224,-187500.0224,0.346,-0.066,0.92,192,0,0,0,0,0,0,0,0,0,0
 2023-06-27 18:20:48.337,-187500.0224,-187500.0224,-187500.0224,-171834.9587,-183518.2379,-178723.8111,-187500.0224,-187500.0224,0.346,-0.066,0.92,192,0,0,0,0,0,0,0,0,0,0
 2023-06-27 18:20:48.337,-187500.0224,-187500.0224,-187500.0224,-172633.5642,-184854.7605,-180195.4723,-187500.0224,-187500.0224,0.346,-0.066,0.92,192,0,0,0,0,0,0,0,0,0,0
 2023-06-27 18:20:48.337,-187500.0224,-187500.0224,-187500.0224,-172888.24,-185139.2088,-180652.4984,-187500.0224,-187500.0224,0.344,-0.068,0.918,192,10,192,253,224,28,176,0,0,0,0
 2023-06-27 18:20:48.337,-187500.0224,-187500.0224,-187500.0224,-172296.6787,-184063.7322,-179559.1852,-187500.0224,-187500.0224,0.344,-0.068,0.918,192,0,0,0,0,0,0,0,0,0,0
 2023-06-27 18:20:48.337,-187500.0224,-187500.0224,-187500.0224,-171643.2702,-183066.1962,-178370.0947,-187500.0224,-187500.0224,0.344,-0.068,0.918,192,0,0,0,0,0,0,0,0,0,0
 2023-06-27 18:20:48.337,-187500.0224,-187500.0224,-187500.0224,-171816.0044,-183490.9241,-178694.7314,-187500.0224,-187500.0224,0.344,-0.068,0.918,192,0,0,0,0,0,0,0,0,0,0
 2023-06-27 18:20:48.814,-187500.0224,-187500.0224,-187500.0224,-172618.3203,-184833.7722,-180169.6113,-187500.0224,-187500.0224,0.344,-0.068,0.918,192,0,0,0,0,0,0,0,0,0,0
 2023-06-27 18:20:48.814,-187500.0224,-187500.0224,-187500.0224,-172886.5412,-185141.0863,-180650.7326,-187500.0224,-187500.0224,0.344,-0.068,0.918,192,0,0,0,0,0,0,0,0,0,0
 2023-06-27 18:20:48.814,-187500.0224,-187500.0224,-187500.0224,-172307.117,-184081.9489,-179577.1113,-187500.0224,-187500.0224,0.344,-0.068,0.918,192,0,0,0,0,0,0,0,0,0,0
 2023-06-27 18:20:48.814,-187500.0224,-187500.0224,-187500.0224,-171647.4052,-183069.616,-178373.0004,-187500.0224,-187500.0224,0.344,-0.068,0.918,192,0,0,0,0,0,0,0,0,0,0
 2023-06-27 18:20:48.814,-187500.0224,-187500.0224,-187500.0224,-171809.053,-183476.4401,-178676.5595,-187500.0224,-187500.0224,0.344,-0.068,0.918,192,0,0,0,0,0,0,0,0,0,0
 2023-06-27 18:20:48.814,-187500.0224,-187500.0224,-187500.0224,-172605.5575,-184816.1143,-180145.8067,-187500.0224,-187500.0224,0.344,-0.068,0.918,192,0,0,0,0,0,0,0,0,0,0
 2023-06-27 18:20:48.814,-187500.0224,-187500.0224,-187500.0224,-172884.2837,-185141.0863,-180645.614,-187500.0224,-187500.0224,0.342,-0.074,0.924,192,10,176,253,176,28,224,0,0,0,0
 2023-06-27 18:20:48.814,-187500.0224,-187500.0224,-187500.0224,-172312.1685,-184092.3648,-179584.912,-187500.0224,-187500.0224,0.342,-0.074,0.924,192,0,0,0,0,0,0,0,0,0,0
 2023-06-27 18:20:48.814,-187500.0224,-187500.0224,-187500.0224,-171640.1856,-183059.6471,-178359.8129,-187500.0224,-187500.0224,0.342,-0.074,0.924,192,0,0,0,0,0,0,0,0,0,0
 2023-06-27 18:20:48.814,-187500.0224,-187500.0224,-187500.0224,-171788.8247,-183447.5617,-178641.0873,-187500.0224,-187500.0224,0.342,-0.074,0.924,192,0,0,0,0,0,0,0,0,0,0
 2023-06-27 18:20:48.814,-187500.0224,-187500.0224,-187500.0224,-172586.335,-184790.9686,-180111.1615,-187500.0224,-187500.0224,0.342,-0.074,0.924,192,0,0,0,0,0,0,0,0,0,0
 2023-06-27 18:20:48.814,-187500.0224,-187500.0224,-187500.0224,-172876.3265,-185135.7219,-180631.8007,-187500.0224,-187500.0224,0.342,-0.074,0.924,192,0,0,0,0,0,0,0,0,0,0
 2023-06-27 18:20:48.814,-187500.0224,-187500.0224,-187500.0224,-172313.0625,-184100.6796,-179587.8177,-187500.0224,-187500.0224,0.342,-0.074,0.924,192,0,0,0,0,0,0,0,0,0,0
 2023-06-27 18:20:48.814,-187500.0224,-187500.0224,-187500.0224,-171632.9883,-183051.6676,-178346.2677,-187500.0224,-187500.0224,0.342,-0.074,0.924,192,0,0,0,0,0,0,0,0,0,0
 2023-06-27 18:20:48.814,-187500.0224,-187500.0224,-187500.0224,-171769.6246,-183420.382,-178605.1233,-187500.0224,-187500.0224,0.342,-0.074,0.924,192,0,0,0,0,0,0,0,0,0,0
 2023-06-27 18:20:48.814,-187500.0224,-187500.0224,-187500.0224,-172569.9064,-184770.7849,-180079.802,-187500.0224,-187500.0224,0.342,-0.074,0.924,192,0,0,0,0,0,0,0,0,0,0
 2023-06-27 18:20:48.814,-187500.0224,-187500.0224,-187500.0224,-172875.8124,-185141.4439,-180628.4032,-187500.0224,-187500.0224,0.34,-0.072,0.92,192,10,160,253,192,28,192,0,0,0,0
 2023-06-27 18:20:48.814,-187500.0224,-187500.0224,-187500.0224,-172321.3327,-184119.4998,-179601.497,-187500.0224,-187500.0224,0.34,-0.072,0.92,192,0,0,0,0,0,0,0,0,0,0
 2023-06-27 18:20:48.815,-187500.0224,-187500.0224,-187500.0224,-171635.6259,-183057.3226,-178347.8994,-187500.0224,-187500.0224,0.34,-0.072,0.92,192,0,0,0,0,0,0,0,0,0,0
 2023-06-27 18:20:48.815,-187500.0224,-187500.0224,-187500.0224,-171760.6168,-183405.8757,-178584.2915,-187500.0224,-187500.0224,0.34,-0.072,0.92,192,0,0,0,0,0,0,0,0,0,0
 2023-06-27 18:20:48.815,-187500.0224,-187500.0224,-187500.0224,-172556.6518,-184754.9152,-180055.2374,-187500.0224,-187500.0224,0.34,-0.072,0.92,192,0,0,0,0,0,0,0,0,0,0
 2023-06-27 18:20:48.815,-187500.0224,-187500.0224,-187500.0224,-172872.1691,-185142.6733,-180622.6365,-187500.0224,-187500.0224,0.34,-0.072,0.92,192,0,0,0,0,0,0,0,0,0,0
 2023-06-27 18:20:48.815,-187500.0224,-187500.0224,-187500.0224,-172331.1898,-184139.9964,-179618.9537,-187500.0224,-187500.0224,0.34,-0.072,0.92,192,0,0,0,0,0,0,0,0,0,0
 2023-06-27 18:20:48.815,-187500.0224,-187500.0224,-187500.0224,-171639.4257,-183065.995,-178355.2978,-187500.0224,-187500.0224,0.34,-0.072,0.92,192,0,0,0,0,0,0,0,0,0,0
 2023-06-27 18:20:48.815,-187500.0224,-187500.0224,-187500.0224,-171750.1562,-183391.5706,-178566.6559,-187500.0224,-187500.0224,0.34,-0.072,0.92,192,0,0,0,0,0,0,0,0,0,0
 2023-06-27 18:20:48.815,-187500.0224,-187500.0224,-187500.0224,-172545.9006,-184740.7219,-180034.7856,-187500.0224,-187500.0224,0.34,-0.072,0.92,192,0,0,0,0,0,0,0,0,0,0
 2023-06-27 18:20:48.815,-187500.0224,-187500.0224,-187500.0224,-172874.1807,-185150.474,-180625.7657,-187500.0224,-187500.0224,0.34,-0.064,0.918,192,10,160,254,0,28,176,0,0,0,0
 2023-06-27 18:20:48.815,-187500.0224,-187500.0224,-187500.0224,-172346.3666,-184167.7796,-179646.2005,-187500.0224,-187500.0224,0.34,-0.064,0.918,192,0,0,0,0,0,0,0,0,0,0
 2023-06-27 18:20:48.815,-187500.0224,-187500.0224,-187500.0224,-171645.6841,-183077.1486,-178367.5019,-187500.0224,-187500.0224,0.34,-0.064,0.918,192,0,0,0,0,0,0,0,0,0,0
 2023-06-27 18:20:48.815,-187500.0224,-187500.0224,-187500.0224,-171743.5177,-183381.1099,-178554.9213,-187500.0224,-187500.0224,0.34,-0.064,0.918,192,0,0,0,0,0,0,0,0,0,0
 2023-06-27 18:20:48.815,-187500.0224,-187500.0224,-187500.0224,-172537.4964,-184728.2272,-180018.0218,-187500.0224,-187500.0224,0.34,-0.064,0.918,192,0,0,0,0,0,0,0,0,0,0
 2023-06-27 18:20:48.815,-187500.0224,-187500.0224,-187500.0224,-172878.584,-185158.6548,-180630.3702,-187500.0224,-187500.0224,0.34,-0.064,0.918,192,0,0,0,0,0,0,0,0,0,0
 2023-06-27 18:20:48.815,-187500.0224,-187500.0224,-187500.0224,-172361.8787,-184193.5735,-179672.0838,-187500.0224,-187500.0224,0.34,-0.064,0.918,192,0,0,0,0,0,0,0,0,0,0
 2023-06-27 18:20:48.815,-187500.0224,-187500.0224,-187500.0224,-171652.5461,-183087.3186,-178379.3036,-187500.0224,-187500.0224,0.34,-0.064,0.918,192,0,0,0,0,0,0,0,0,0,0
 2023-06-27 18:20:48.815,-187500.0224,-187500.0224,-187500.0224,-171733.0124,-183364.972,-178537.7775,-187500.0224,-187500.0224,0.34,-0.064,0.918,192,0,0,0,0,0,0,0,0,0,0
 2023-06-27 18:20:48.815,-187500.0224,-187500.0224,-187500.0224,-172522.2078,-184707.2389,-179992.4514,-187500.0224,-187500.0224,0.34,-0.064,0.918,192,0,0,0,0,0,0,0,0,0,0
 2023-06-27 18:20:48.815,-187500.0224,-187500.0224,-187500.0224,-172872.8843,-185156.3972,-180624.2011,-187500.0224,-187500.0224,0.342,-0.068,0.924,192,10,176,253,224,28,224,0,0,0,0
 2023-06-27 18:20:48.815,-187500.0224,-187500.0224,-187500.0224,-172370.35,-184211.7008,-179689.8311,-187500.0224,-187500.0224,0.342,-0.068,0.924,192,0,0,0,0,0,0,0,0,0,0
 2023-06-27 18:20:48.815,-187500.0224,-187500.0224,-187500.0224,-171658.2458,-183096.3711,-178389.2501,-187500.0224,-187500.0224,0.342,-0.068,0.924,192,0,0,0,0,0,0,0,0,0,0
 2023-06-27 18:20:48.815,-187500.0224,-187500.0224,-187500.0224,-171731.9172,-183360.7475,-178532.7483,-187500.0224,-187500.0224,0.342,-0.068,0.924,192,0,0,0,0,0,0,0,0,0,0
 2023-06-27 18:20:48.815,-187500.0224,-187500.0224,-187500.0224,-172518.5868,-184701.6063,-179983.8907,-187500.0224,-187500.0224,0.342,-0.068,0.924,192,0,0,0,0,0,0,0,0,0,0
 2023-06-27 18:20:48.815,-187500.0224,-187500.0224,-187500.0224,-172880.5957,-185167.9531,-180633.7676,-187500.0224,-187500.0224,0.342,-0.068,0.924,192,0,0,0,0,0,0,0,0,0,0
 2023-06-27 18:20:48.815,-187500.0224,-187500.0224,-187500.0224,-172385.0128,-184235.1477,-179714.1722,-187500.0224,-187500.0224,0.342,-0.068,0.924,192,0,0,0,0,0,0,0,0,0,0
 2023-06-27 18:20:48.815,-187500.0224,-187500.0224,-187500.0224,-171666.5607,-183107.7705,-178402.7282,-187500.0224,-187500.0224,0.342,-0.068,0.924,192,0,0,0,0,0,0,0,0,0,0
 2023-06-27 18:20:48.815,-187500.0224,-187500.0224,-187500.0224,-171727.0892,-183351.9409,-178523.9418,-187500.0224,-187500.0224,0.342,-0.068,0.924,192,0,0,0,0,0,0,0,0,0,0
 2023-06-27 18:20:48.815,-187500.0224,-187500.0224,-187500.0224,-172511.0096,-184690.0057,-179969.8761,-187500.0224,-187500.0224,0.342,-0.068,0.924,192,0,0,0,0,0,0,0,0,0,0
 2023-06-27 18:20:48.815,-187500.0224,-187500.0224,-187500.0224,-172882.0038,-185172.3117,-180636.3157,-187500.0224,-187500.0224,0.336,-0.068,0.918,192,10,128,253,224,28,176,0,0,0,0
 2023-06-27 18:20:48.815,-187500.0224,-187500.0224,-187500.0224,-172400.1002,-184261.0087,-179741.8213,-187500.0224,-187500.0224,0.336,-0.068,0.918,192,0,0,0,0,0,0,0,0,0,0
 2023-06-27 18:20:48.815,-187500.0224,-187500.0224,-187500.0224,-171673.3556,-183117.4488,-178415.4017,-187500.0224,-187500.0224,0.336,-0.068,0.918,192,0,0,0,0,0,0,0,0,0,0
 2023-06-27 18:20:48.815,-187500.0224,-187500.0224,-187500.0224,-171717.3215,-183334.7301,-178506.5074,-187500.0224,-187500.0224,0.336,-0.068,0.918,192,0,0,0,0,0,0,0,0,0,0
 2023-06-27 18:20:48.815,-187500.0224,-187500.0224,-187500.0224,-172494.6481,-184666.1341,-179941.3329,-187500.0224,-187500.0224,0.336,-0.068,0.918,192,0,0,0,0,0,0,0,0,0,0
 2023-06-27 18:20:48.815,-187500.0224,-187500.0224,-187500.0224,-172880.7074,-185174.5692,-180634.8182,-187500.0224,-187500.0224,0.336,-0.068,0.918,192,0,0,0,0,0,0,0,0,0,0
 2023-06-27 18:20:48.815,-187500.0224,-187500.0224,-187500.0224,-172411.4996,-184280.8794,-179761.3567,-187500.0224,-187500.0224,0.336,-0.068,0.918,192,0,0,0,0,0,0,0,0,0,0
 2023-06-27 18:20:48.815,-187500.0224,-187500.0224,-187500.0224,-171680.9328,-183127.5517,-178426.1976,-187500.0224,-187500.0224,0.336,-0.068,0.918,192,0,0,0,0,0,0,0,0,0,0
 2023-06-27 18:20:48.815,-187500.0224,-187500.0224,-187500.0224,-171713.2982,-183324.56,-178494.4822,-187500.0224,-187500.0224,0.336,-0.068,0.918,192,0,0,0,0,0,0,0,0,0,0
 2023-06-27 18:20:48.815,-187500.0224,-187500.0224,-187500.0224,-172483.584,-184647.8951,-179917.6624,-187500.0224,-187500.0224,0.336,-0.068,0.918,192,0,0,0,0,0,0,0,0,0,0
 2023-06-27 18:20:48.815,-187500.0224,-187500.0224,-187500.0224,-172878.0923,-185174.748,-180629.9678,-187500.0224,-187500.0224,0.338,-0.072,0.918,192,10,144,253,192,28,176,0,0,0,0
 2023-06-27 18:20:48.815,-187500.0224,-187500.0224,-187500.0224,-172418.2051,-184296.6597,-179775.3489,-187500.0224,-187500.0224,0.338,-0.072,0.918,192,0,0,0,0,0,0,0,0,0,0
 2023-06-27 18:20:48.815,-187500.0224,-187500.0224,-187500.0224,-171682.5422,-183132.1786,-178430.3327,-187500.0224,-187500.0224,0.338,-0.072,0.918,192,0,0,0,0,0,0,0,0,0,0
 2023-06-27 18:20:48.815,-187500.0224,-187500.0224,-187500.0224,-171703.374,-183308.1315,-178475.1255,-187500.0224,-187500.0224,0.338,-0.072,0.918,192,0,0,0,0,0,0,0,0,0,0
 2023-06-27 18:20:48.815,-187500.0224,-187500.0224,-187500.0224,-172467.1331,-184623.934,-179886.4594,-187500.0224,-187500.0224,0.338,-0.072,0.918,192,0,0,0,0,0,0,0,0,0,0
 2023-06-27 18:20:48.815,-187500.0224,-187500.0224,-187500.0224,-172876.0806,-185175.6644,-180624.514,-187500.0224,-187500.0224,0.338,-0.072,0.918,192,0,0,0,0,0,0,0,0,0,0
 2023-06-27 18:20:48.815,-187500.0224,-187500.0224,-187500.0224,-172426.8106,-184313.2,-179788.827,-187500.0224,-187500.0224,0.338,-0.072,0.918,192,0,0,0,0,0,0,0,0,0,0
 2023-06-27 18:20:48.815,-187500.0224,-187500.0224,-187500.0224,-171676.0378,-183123.3943,-178418.2627,-187500.0224,-187500.0224,0.338,-0.072,0.918,192,0,0,0,0,0,0,0,0,0,0
 2023-06-27 18:20:48.815,-187500.0224,-187500.0224,-187500.0224,-171679.86,-183274.9392,-178434.356,-187500.0224,-187500.0224,0.338,-0.072,0.918,192,0,0,0,0,0,0,0,0,0,0
 2023-06-27 18:20:48.815,-187500.0224,-187500.0224,-187500.0224,-172446.3683,-184597.2684,-179849.1096,-187500.0224,-187500.0224,0.338,-0.072,0.918,192,0,0,0,0,0,0,0,0,0,0
 2023-06-27 18:20:48.815,-187500.0224,-187500.0224,-187500.0224,-172868.414,-185171.5517,-180611.2371,-187500.0224,-187500.0224,0.346,-0.062,0.924,192,10,208,254,16,28,224,0,0,0,0
 2023-06-27 18:20:48.815,-187500.0224,-187500.0224,-187500.0224,-172428.8893,-184324.9347,-179794.8172,-187500.0224,-187500.0224,0.346,-0.062,0.924,192,0,0,0,0,0,0,0,0,0,0
 2023-06-27 18:20:48.815,-187500.0224,-187500.0224,-187500.0224,-171677.0213,-183129.0493,-178420.0732,-187500.0224,-187500.0224,0.346,-0.062,0.924,192,0,0,0,0,0,0,0,0,0,0
 2023-06-27 18:20:48.815,-187500.0224,-187500.0224,-187500.0224,-171667.0971,-183258.7565,-178412.6748,-187500.0224,-187500.0224,0.346,-0.062,0.924,192,0,0,0,0,0,0,0,0,0,0
 2023-06-27 18:20:48.815,-187500.0224,-187500.0224,-187500.0224,-172428.4646,-184575.7213,-179819.3595,-187500.0224,-187500.0224,0.346,-0.062,0.924,192,0,0,0,0,0,0,0,0,0,0
 2023-06-27 18:20:48.815,-187500.0224,-187500.0224,-187500.0224,-172861.3285,-185167.6849,-180599.6589,-187500.0224,-187500.0224,0.346,-0.062,0.924,192,0,0,0,0,0,0,0,0,0,0
 2023-06-27 18:20:48.815,-187500.0224,-187500.0224,-187500.0224,-172435.5948,-184343.4866,-179809.3682,-187500.0224,-187500.0224,0.346,-0.062,0.924,192,0,0,0,0,0,0,0,0,0,0
 2023-06-27 18:20:48.815,-187500.0224,-187500.0224,-187500.0224,-171683.101,-183141.3875,-178430.8691,-187500.0224,-187500.0224,0.346,-0.062,0.924,192,0,0,0,0,0,0,0,0,0,0
 2023-06-27 18:20:48.815,-187500.0224,-187500.0224,-187500.0224,-171663.4985,-183251.0004,-178401.3424,-187500.0224,-187500.0224,0.346,-0.062,0.924,192,0,0,0,0,0,0,0,0,0,0
 2023-06-27 18:20:48.815,-187500.0224,-187500.0224,-187500.0224,-172416.8193,-184557.974,-179794.2137,-187500.0224,-187500.0224,0.346,-0.062,0.924,192,0,0,0,0,0,0,0,0,0,0
 2023-06-27 18:20:48.815,-187500.0224,-187500.0224,-187500.0224,-172859.9874,-185171.127,-180596.3955,-187500.0224,-187500.0224,0.34,-0.07,0.926,192,10,160,253,208,28,240,0,0,0,0
 2023-06-27 18:20:48.815,-187500.0224,-187500.0224,-187500.0224,-172446.5918,-184365.9054,-179828.7472,-187500.0224,-187500.0224,0.34,-0.07,0.926,192,0,0,0,0,0,0,0,0,0,0
 2023-06-27 18:20:48.815,-187500.0224,-187500.0224,-187500.0224,-171688.9795,-183153.2786,-178441.9332,-187500.0224,-187500.0224,0.34,-0.07,0.926,192,0,0,0,0,0,0,0,0,0,0
 2023-06-27 18:20:48.815,-187500.0224,-187500.0224,-187500.0224,-171652.8367,-183238.4164,-178386.3444,-187500.0224,-187500.0224,0.34,-0.07,0.926,192,0,0,0,0,0,0,0,0,0,0
 2023-06-27 18:20:48.815,-187500.0224,-187500.0224,-187500.0224,-172404.5259,-184542.4395,-179773.4266,-187500.0224,-187500.0224,0.34,-0.07,0.926,192,0,0,0,0,0,0,0,0,0,0
 2023-06-27 18:20:48.815,-187500.0224,-187500.0224,-187500.0224,-172861.7755,-185178.5478,-180599.9047,-187500.0224,-187500.0224,0.34,-0.07,0.926,192,0,0,0,0,0,0,0,0,0,0
 2023-06-27 18:20:48.815,-187500.0224,-187500.0224,-187500.0224,-172461.4781,-184393.264,-179856.2398,-187500.0224,-187500.0224,0.34,-0.07,0.926,192,0,0,0,0,0,0,0,0,0,0
 2023-06-27 18:20:48.815,-187500.0224,-187500.0224,-187500.0224,-171697.5178,-183169.0589,-178459.9711,-187500.0224,-187500.0224,0.34,-0.07,0.926,192,0,0,0,0,0,0,0,0,0,0
 2023-06-27 18:20:48.815,-187500.0224,-187500.0224,-187500.0224,-171655.2954,-183240.5398,-178389.4737,-187500.0224,-187500.0224,0.34,-0.07,0.926,192,0,0,0,0,0,0,0,0,0,0
 2023-06-27 18:20:48.815,-187500.0224,-187500.0224,-187500.0224,-172397.7533,-184533.7,-179763.5248,-187500.0224,-187500.0224,0.34,-0.07,0.926,192,0,0,0,0,0,0,0,0,0,0
 2023-06-27 18:20:48.815,-187500.0224,-187500.0224,-187500.0224,-172863.2507,-185184.7393,-180605.4927,-187500.0224,-187500.0224,0.34,-0.06,0.914,192,10,160,254,32,28,144,0,0,0,0
 2023-06-27 18:20:48.815,-187500.0224,-187500.0224,-187500.0224,-172476.6326,-184419.5943,-179885.2524,-187500.0224,-187500.0224,0.34,-0.06,0.914,192,0,0,0,0,0,0,0,0,0,0
 2023-06-27 18:20:48.815,-187500.0224,-187500.0224,-187500.0224,-171711.2642,-183188.572,-178484.2898,-187500.0224,-187500.0224,0.34,-0.06,0.914,192,0,0,0,0,0,0,0,0,0,0
 2023-06-27 18:20:48.816,-187500.0224,-187500.0224,-187500.0224,-171656.413,-183238.3941,-178390.1666,-187500.0224,-187500.0224,0.34,-0.06,0.914,192,0,0,0,0,0,0,0,0,0,0
 2023-06-27 18:20:48.816,-187500.0224,-187500.0224,-187500.0224,-172395.0264,-184525.6534,-179754.6065,-187500.0224,-187500.0224,0.34,-0.06,0.914,192,0,0,0,0,0,0,0,0,0,0
 2023-06-27 18:20:48.816,-187500.0224,-187500.0224,-187500.0224,-172870.8727,-185196.1386,-180616.5344,-187500.0224,-187500.0224,0.34,-0.06,0.914,192,0,0,0,0,0,0,0,0,0,0
 2023-06-27 18:20:48.816,-187500.0224,-187500.0224,-187500.0224,-172495.4751,-184449.3892,-179917.8859,-187500.0224,-187500.0224,0.34,-0.06,0.914,192,0,0,0,0,0,0,0,0,0,0
 2023-06-27 18:20:48.816,-187500.0224,-187500.0224,-187500.0224,-171724.787,-183207.7275,-178508.4296,-187500.0224,-187500.0224,0.34,-0.06,0.914,192,0,0,0,0,0,0,0,0,0,0
 2023-06-27 18:20:48.816,-187500.0224,-187500.0224,-187500.0224,-171653.1496,-183231.1297,-178385.6739,-187500.0224,-187500.0224,0.34,-0.06,0.914,192,0,0,0,0,0,0,0,0,0,0
 2023-06-27 18:20:48.816,-187500.0224,-187500.0224,-187500.0224,-172385.0798,-184509.7613,-179737.5297,-187500.0224,-187500.0224,0.34,-0.06,0.914,192,0,0,0,0,0,0,0,0,0,0
 2023-06-27 18:20:48.816,-187500.0224,-187500.0224,-187500.0224,-172871.722,-185200.3184,-180619.9989,-187500.0224,-187500.0224,0.344,-0.07,0.92,192,10,192,253,208,28,192,0,0,0,0
 2023-06-27 18:20:48.816,-187500.0224,-187500.0224,-187500.0224,-172509.9814,-184474.8479,-179946.295,-187500.0224,-187500.0224,0.344,-0.07,0.92,192,0,0,0,0,0,0,0,0,0,0
 2023-06-27 18:20:48.816,-187500.0224,-187500.0224,-187500.0224,-171738.7792,-183227.6205,-178533.2624,-187500.0224,-187500.0224,0.344,-0.07,0.92,192,0,0,0,0,0,0,0,0,0,0
 2023-06-27 18:20:48.816,-187500.0224,-187500.0224,-187500.0224,-171654.6248,-183229.7439,-178387.2832,-187500.0224,-187500.0224,0.344,-0.07,0.92,192,0,0,0,0,0,0,0,0,0,0
 2023-06-27 18:20:48.816,-187500.0224,-187500.0224,-187500.0224,-172376.2956,-184494.808,-179722.1294,-187500.0224,-187500.0224,0.344,-0.07,0.92,192,0,0,0,0,0,0,0,0,0,0
 2023-06-27 18:20:48.816,-187500.0224,-187500.0224,-187500.0224,-172875.0748,-185205.8393,-180624.8269,-187500.0224,-187500.0224,0.344,-0.07,0.92,192,0,0,0,0,0,0,0,0,0,0
 2023-06-27 18:20:48.816,-187500.0224,-187500.0224,-187500.0224,-172526.097,-184499.77,-179973.2065,-187500.0224,-187500.0224,0.344,-0.07,0.92,192,0,0,0,0,0,0,0,0,0,0
 2023-06-27 18:20:48.816,-187500.0224,-187500.0224,-187500.0224,-171750.6256,-183243.2444,-178552.5073,-187500.0224,-187500.0224,0.344,-0.07,0.92,192,0,0,0,0,0,0,0,0,0,0
 2023-06-27 18:20:48.816,-187500.0224,-187500.0224,-187500.0224,-171654.6025,-183225.2289,-178384.0422,-187500.0224,-187500.0224,0.344,-0.07,0.92,192,0,0,0,0,0,0,0,0,0,0
 2023-06-27 18:20:48.816,-187500.0224,-187500.0224,-187500.0224,-172367.7572,-184479.2511,-179703.8009,-187500.0224,-187500.0224,0.344,-0.07,0.92,192,0,0,0,0,0,0,0,0,0,0
 2023-06-27 18:20:48.816,-187500.0224,-187500.0224,-187500.0224,-172871.8785,-185204.6323,-180620.7813,-187500.0224,-187500.0224,0.342,-0.064,0.918,192,10,176,254,0,28,176,0,0,0,0
 2023-06-27 18:20:48.816,-187500.0224,-187500.0224,-187500.0224,-172532.512,-184515.3045,-179988.9645,-187500.0224,-187500.0224,0.342,-0.064,0.918,192,0,0,0,0,0,0,0,0,0,0
 2023-06-27 18:20:48.816,-187500.0224,-187500.0224,-187500.0224,-171754.3583,-183250.8663,-178562.1409,-187500.0224,-187500.0224,0.342,-0.064,0.918,192,0,0,0,0,0,0,0,0,0,0
 2023-06-27 18:20:48.816,-187500.0224,-187500.0224,-187500.0224,-171645.1253,-183211.3708,-178369.8265,-187500.0224,-187500.0224,0.342,-0.064,0.918,192,0,0,0,0,0,0,0,0,0,0
 2023-06-27 18:20:48.816,-187500.0224,-187500.0224,-187500.0224,-172351.664,-184456.5641,-179677.0906,-187500.0224,-187500.0224,0.342,-0.064,0.918,192,0,0,0,0,0,0,0,0,0,0
 2023-06-27 18:20:48.816,-187500.0224,-187500.0224,-187500.0224,-172867.1176,-185201.7713,-180613.964,-187500.0224,-187500.0224,0.342,-0.064,0.918,192,0,0,0,0,0,0,0,0,0,0
 2023-06-27 18:20:48.816,-187500.0224,-187500.0224,-187500.0224,-172542.9055,-184535.6669,-180008.4552,-187500.0224,-187500.0224,0.342,-0.064,0.918,192,0,0,0,0,0,0,0,0,0,0
 2023-06-27 18:20:48.816,-187500.0224,-187500.0224,-187500.0224,-171761.3768,-183262.7798,-178575.0378,-187500.0224,-187500.0224,0.342,-0.064,0.918,192,0,0,0,0,0,0,0,0,0,0
 2023-06-27 18:20:48.816,-187500.0224,-187500.0224,-187500.0224,-171636.7658,-183199.1891,-178356.4601,-187500.0224,-187500.0224,0.342,-0.064,0.918,192,0,0,0,0,0,0,0,0,0,0
 2023-06-27 18:20:48.816,-187500.0224,-187500.0224,-187500.0224,-172336.8671,-184436.157,-179651.9449,-187500.0224,-187500.0224,0.342,-0.064,0.918,192,0,0,0,0,0,0,0,0,0,0
 2023-06-27 18:20:48.816,-187500.0224,-187500.0224,-187500.0224,-172866.1788,-185203.6935,-180611.3488,-187500.0224,-187500.0224,0.34,-0.066,0.918,192,10,160,253,240,28,176,0,0,0,0
 2023-06-27 18:20:48.816,-187500.0224,-187500.0224,-187500.0224,-172548.8287,-184550.1285,-180021.4192,-187500.0224,-187500.0224,0.34,-0.066,0.918,192,0,0,0,0,0,0,0,0,0,0
 2023-06-27 18:20:48.816,-187500.0224,-187500.0224,-187500.0224,-171761.8238,-183268.0101,-178580.5811,-187500.0224,-187500.0224,0.34,-0.066,0.918,192,0,0,0,0,0,0,0,0,0,0
 2023-06-27 18:20:48.816,-187500.0224,-187500.0224,-187500.0224,-171626.2828,-183184.884,-178340.5233,-187500.0224,-187500.0224,0.34,-0.066,0.918,192,0,0,0,0,0,0,0,0,0,0
 2023-06-27 18:20:49.294,-187500.0224,-187500.0224,-187500.0224,-172323.4337,-184415.9734,-179626.3521,-187500.0224,-187500.0224,0.34,-0.066,0.918,192,0,0,0,0,0,0,0,0,0,0
 2023-06-27 18:20:49.294,-187500.0224,-187500.0224,-187500.0224,-172862.6025,-185202.8442,-180605.3362,-187500.0224,-187500.0224,0.34,-0.066,0.918,192,0,0,0,0,0,0,0,0,0,0
 2023-06-27 18:20:49.294,-187500.0224,-187500.0224,-187500.0224,-172560.474,-184572.592,-180041.9158,-187500.0224,-187500.0224,0.34,-0.066,0.918,192,0,0,0,0,0,0,0,0,0,0
 2023-06-27 18:20:49.294,-187500.0224,-187500.0224,-187500.0224,-171772.7315,-183284.9974,-178597.9707,-187500.0224,-187500.0224,0.34,-0.066,0.918,192,0,0,0,0,0,0,0,0,0,0
 2023-06-27 18:20:49.295,-187500.0224,-187500.0224,-187500.0224,-171625.657,-183181.4642,-178335.7848,-187500.0224,-187500.0224,0.34,-0.066,0.918,192,0,0,0,0,0,0,0,0,0,0
 2023-06-27 18:20:49.295,-187500.0224,-187500.0224,-187500.0224,-172310.0003,-184396.2368,-179601.6535,-187500.0224,-187500.0224,0.34,-0.066,0.918,192,0,0,0,0,0,0,0,0,0,0
 2023-06-27 18:20:49.295,-187500.0224,-187500.0224,-187500.0224,-172859.0933,-185201.9501,-180599.5247,-187500.0224,-187500.0224,0.34,-0.066,0.918,192,0,0,0,0,0,0,0,0,0,0
 2023-06-27 18:20:49.295,-187500.0224,-187500.0224,-187500.0224,-172569.9288,-184591.7922,-180059.3948,-187500.0224,-187500.0224,0.34,-0.064,0.922,192,10,160,254,0,28,208,0,0,0,0
 2023-06-27 18:20:49.295,-187500.0224,-187500.0224,-187500.0224,-171782.0298,-183299.839,-178613.1699,-187500.0224,-187500.0224,0.34,-0.064,0.922,192,0,0,0,0,0,0,0,0,0,0
 2023-06-27 18:20:49.295,-187500.0224,-187500.0224,-187500.0224,-171621.9913,-183174.6245,-178327.4252,-187500.0224,-187500.0224,0.34,-0.064,0.922,192,0,0,0,0,0,0,0,0,0,0
 2023-06-27 18:20:49.295,-187500.0224,-187500.0224,-187500.0224,-172298.5562,-184379.16,-179579.7041,-187500.0224,-187500.0224,0.34,-0.064,0.922,192,0,0,0,0,0,0,0,0,0,0
 2023-06-27 18:20:49.295,-187500.0224,-187500.0224,-187500.0224,-172856.0311,-185201.883,-180594.7638,-187500.0224,-187500.0224,0.34,-0.064,0.922,192,0,0,0,0,0,0,0,0,0,0
 2023-06-27 18:20:49.295,-187500.0224,-187500.0224,-187500.0224,-172580.4788,-184611.8193,-180077.8574,-187500.0224,-187500.0224,0.34,-0.064,0.922,192,0,0,0,0,0,0,0,0,0,0
 2023-06-27 18:20:49.295,-187500.0224,-187500.0224,-187500.0224,-171789.6517,-183312.8701,-178626.7151,-187500.0224,-187500.0224,0.34,-0.064,0.922,192,0,0,0,0,0,0,0,0,0,0
 2023-06-27 18:20:49.295,-187500.0224,-187500.0224,-187500.0224,-171619.2197,-183169.126,-178320.5856,-187500.0224,-187500.0224,0.34,-0.064,0.922,192,0,0,0,0,0,0,0,0,0,0
 2023-06-27 18:20:49.295,-187500.0224,-187500.0224,-187500.0224,-172288.2744,-184363.1785,-179558.9169,-187500.0224,-187500.0224,0.34,-0.064,0.922,192,0,0,0,0,0,0,0,0,0,0
 2023-06-27 18:20:49.295,-187500.0224,-187500.0224,-187500.0224,-172856.1205,-185204.1853,-180592.4392,-187500.0224,-187500.0224,0.34,-0.064,0.922,192,0,0,0,0,0,0,0,0,0,0
 2023-06-27 18:20:49.295,-187500.0224,-187500.0224,-187500.0224,-172589.1289,-184629.969,-180094.1965,-187500.0224,-187500.0224,0.338,-0.068,0.926,192,10,144,253,224,28,240,0,0,0,0
 2023-06-27 18:20:49.295,-187500.0224,-187500.0224,-187500.0224,-171793.7197,-183322.459,-178636.4381,-187500.0224,-187500.0224,0.338,-0.068,0.926,192,0,0,0,0,0,0,0,0,0,0
 2023-06-27 18:20:49.295,-187500.0224,-187500.0224,-187500.0224,-171608.2897,-183155.2456,-178304.9841,-187500.0224,-187500.0224,0.338,-0.068,0.926,192,0,0,0,0,0,0,0,0,0,0
 2023-06-27 18:20:49.295,-187500.0224,-187500.0224,-187500.0224,-172267.9344,-184336.7141,-179527.401,-187500.0224,-187500.0224,0.338,-0.068,0.926,192,0,0,0,0,0,0,0,0,0,0
 2023-06-27 18:20:49.295,-187500.0224,-187500.0224,-187500.0224,-172848.1856,-185198.4409,-180581.7328,-187500.0224,-187500.0224,0.338,-0.068,0.926,192,0,0,0,0,0,0,0,0,0,0
 2023-06-27 18:20:49.295,-187500.0224,-187500.0224,-187500.0224,-172596.9073,-184647.2245,-180109.418,-187500.0224,-187500.0224,0.338,-0.068,0.926,192,0,0,0,0,0,0,0,0,0,0
 2023-06-27 18:20:49.295,-187500.0224,-187500.0224,-187500.0224,-171802.3922,-183337.077,-178651.3467,-187500.0224,-187500.0224,0.338,-0.068,0.926,192,0,0,0,0,0,0,0,0,0,0
 2023-06-27 18:20:49.295,-187500.0224,-187500.0224,-187500.0224,-171606.3898,-183150.954,-178299.2397,-187500.0224,-187500.0224,0.338,-0.068,0.926,192,0,0,0,0,0,0,0,0,0,0
 2023-06-27 18:20:49.295,-187500.0224,-187500.0224,-187500.0224,-172256.982,-184318.8327,-179504.334,-187500.0224,-187500.0224,0.338,-0.068,0.926,192,0,0,0,0,0,0,0,0,0,0
 2023-06-27 18:20:49.295,-187500.0224,-187500.0224,-187500.0224,-172844.52,-185196.8092,-180574.8037,-187500.0224,-187500.0224,0.338,-0.068,0.926,192,0,0,0,0,0,0,0,0,0,0
 2023-06-27 18:20:49.295,-187500.0224,-187500.0224,-187500.0224,-172606.9433,-184666.894,-180126.9195,-187500.0224,-187500.0224,0.342,-0.068,0.928,192,10,176,253,224,29,0,0,0,0,0
 2023-06-27 18:20:49.295,-187500.0224,-187500.0224,-187500.0224,-171811.7129,-183352.455,-178667.0153,-187500.0224,-187500.0224,0.342,-0.068,0.928,192,0,0,0,0,0,0,0,0,0,0
 2023-06-27 18:20:49.295,-187500.0224,-187500.0224,-187500.0224,-171602.4782,-183143.8685,-178290.746,-187500.0224,-187500.0224,0.342,-0.068,0.928,192,0,0,0,0,0,0,0,0,0,0
 2023-06-27 18:20:49.295,-187500.0224,-187500.0224,-187500.0224,-172243.8615,-184298.7161,-179479.3,-187500.0224,-187500.0224,0.342,-0.068,0.928,192,0,0,0,0,0,0,0,0,0,0
 2023-06-27 18:20:49.295,-187500.0224,-187500.0224,-187500.0224,-172840.9213,-185195.2669,-180568.21,-187500.0224,-187500.0224,0.342,-0.068,0.928,192,0,0,0,0,0,0,0,0,0,0
 2023-06-27 18:20:49.295,-187500.0224,-187500.0224,-187500.0224,-172610.8995,-184680.4168,-180138.5647,-187500.0224,-187500.0224,0.342,-0.068,0.928,192,0,0,0,0,0,0,0,0,0,0
 2023-06-27 18:20:49.295,-187500.0224,-187500.0224,-187500.0224,-171813.5234,-183360.1664,-178675.196,-187500.0224,-187500.0224,0.342,-0.068,0.928,192,0,0,0,0,0,0,0,0,0,0
 2023-06-27 18:20:49.295,-187500.0224,-187500.0224,-187500.0224,-171593.1575,-183131.3515,-178276.8879,-187500.0224,-187500.0224,0.342,-0.068,0.928,192,0,0,0,0,0,0,0,0,0,0
 2023-06-27 18:20:49.295,-187500.0224,-187500.0224,-187500.0224,-172228.3941,-184276.7667,-179452.2991,-187500.0224,-187500.0224,0.342,-0.068,0.928,192,0,0,0,0,0,0,0,0,0,0
 2023-06-27 18:20:49.295,-187500.0224,-187500.0224,-187500.0224,-172837.7474,-185194.2611,-180561.9962,-187500.0224,-187500.0224,0.342,-0.068,0.928,192,0,0,0,0,0,0,0,0,0,0
 2023-06-27 18:20:49.295,-187500.0224,-187500.0224,-187500.0224,-172622.9918,-184701.4945,-180157.2955,-187500.0224,-187500.0224,0.342,-0.07,0.928,192,10,176,253,208,29,0,0,0,0,0
 2023-06-27 18:20:49.295,-187500.0224,-187500.0224,-187500.0224,-171824.744,-183376.1926,-178690.9987,-187500.0224,-187500.0224,0.342,-0.07,0.928,192,0,0,0,0,0,0,0,0,0,0
 2023-06-27 18:20:49.295,-187500.0224,-187500.0224,-187500.0224,-171591.3023,-183127.06,-178270.6294,-187500.0224,-187500.0224,0.342,-0.07,0.928,192,0,0,0,0,0,0,0,0,0,0
 2023-06-27 18:20:49.295,-187500.0224,-187500.0224,-187500.0224,-172218.0453,-184262.6851,-179433.8589,-187500.0224,-187500.0224,0.342,-0.07,0.928,192,0,0,0,0,0,0,0,0,0,0
 2023-06-27 18:20:49.295,-187500.0224,-187500.0224,-187500.0224,-172830.3042,-185188.8073,-180552.3626,-187500.0224,-187500.0224,0.342,-0.07,0.928,192,0,0,0,0,0,0,0,0,0,0
 2023-06-27 18:20:49.295,-187500.0224,-187500.0224,-187500.0224,-172627.2833,-184714.1903,-180167.9796,-187500.0224,-187500.0224,0.342,-0.07,0.928,192,0,0,0,0,0,0,0,0,0,0
 2023-06-27 18:20:49.295,-187500.0224,-187500.0224,-187500.0224,-171832.2094,-183390.2071,-178705.2815,-187500.0224,-187500.0224,0.342,-0.07,0.928,192,0,0,0,0,0,0,0,0,0,0
 2023-06-27 18:20:49.295,-187500.0224,-187500.0224,-187500.0224,-171584.8874,-183118.6334,-178261.1747,-187500.0224,-187500.0224,0.342,-0.07,0.928,192,0,0,0,0,0,0,0,0,0,0
 2023-06-27 18:20:49.295,-187500.0224,-187500.0224,-187500.0224,-172202.8908,-184239.7522,-179406.0757,-187500.0224,-187500.0224,0.342,-0.07,0.928,192,0,0,0,0,0,0,0,0,0,0
 2023-06-27 18:20:49.295,-187500.0224,-187500.0224,-187500.0224,-172829.4772,-185189.2096,-180547.5793,-187500.0224,-187500.0224,0.342,-0.07,0.928,192,0,0,0,0,0,0,0,0,0,0
 2023-06-27 18:20:49.295,-187500.0224,-187500.0224,-187500.0224,-172640.4485,-184735.7374,-180187.2245,-187500.0224,-187500.0224,0.342,-0.066,0.928,192,10,176,253,240,29,0,0,0,0,0
 2023-06-27 18:20:49.295,-187500.0224,-187500.0224,-187500.0224,-171843.6982,-183406.5015,-178721.2853,-187500.0224,-187500.0224,0.342,-0.066,0.928,192,0,0,0,0,0,0,0,0,0,0
 2023-06-27 18:20:49.295,-187500.0224,-187500.0224,-187500.0224,-171582.4064,-183111.6597,-178251.8093,-187500.0224,-187500.0224,0.342,-0.066,0.928,192,0,0,0,0,0,0,0,0,0,0
 2023-06-27 18:20:49.295,-187500.0224,-187500.0224,-187500.0224,-172188.3398,-184215.1206,-179374.2915,-187500.0224,-187500.0224,0.342,-0.066,0.928,192,0,0,0,0,0,0,0,0,0,0
 2023-06-27 18:20:49.295,-187500.0224,-187500.0224,-187500.0224,-172823.487,-185183.7558,-180534.1235,-187500.0224,-187500.0224,0.342,-0.066,0.928,192,0,0,0,0,0,0,0,0,0,0
 2023-06-27 18:20:49.295,-187500.0224,-187500.0224,-187500.0224,-172645.4553,-184749.3273,-180195.7181,-187500.0224,-187500.0224,0.342,-0.066,0.928,192,0,0,0,0,0,0,0,0,0,0
 2023-06-27 18:20:49.295,-187500.0224,-187500.0224,-187500.0224,-171847.9004,-183417.4539,-178729.9131,-187500.0224,-187500.0224,0.342,-0.066,0.928,192,0,0,0,0,0,0,0,0,0,0
 2023-06-27 18:20:49.295,-187500.0224,-187500.0224,-187500.0224,-171576.6173,-183104.9318,-178241.7733,-187500.0224,-187500.0224,0.342,-0.066,0.928,192,0,0,0,0,0,0,0,0,0,0
 2023-06-27 18:20:49.296,-187500.0224,-187500.0224,-187500.0224,-172175.9122,-184198.692,-179352.0515,-187500.0224,-187500.0224,0.342,-0.066,0.928,192,0,0,0,0,0,0,0,0,0,0
 2023-06-27 18:20:49.296,-187500.0224,-187500.0224,-187500.0224,-172818.6813,-185181.0512,-180525.6746,-187500.0224,-187500.0224,0.342,-0.066,0.928,192,0,0,0,0,0,0,0,0,0,0
 2023-06-27 18:20:49.296,-187500.0224,-187500.0224,-187500.0224,-172651.9373,-184765.5993,-180209.1962,-187500.0224,-187500.0224,0.346,-0.064,0.92,192,10,208,254,0,28,192,0,0,0,0
 2023-06-27 18:20:49.296,-187500.0224,-187500.0224,-187500.0224,-171855.9023,-183433.1448,-178745.8275,-187500.0224,-187500.0224,0.346,-0.064,0.92,192,0,0,0,0,0,0,0,0,0,0
 2023-06-27 18:20:49.296,-187500.0224,-187500.0224,-187500.0224,-171570.7164,-183097.6004,-178233.2797,-187500.0224,-187500.0224,0.346,-0.064,0.92,192,0,0,0,0,0,0,0,0,0,0
 2023-06-27 18:20:49.296,-187500.0224,-187500.0224,-187500.0224,-172158.1873,-184173.2558,-179321.2732,-187500.0224,-187500.0224,0.346,-0.064,0.92,192,0,0,0,0,0,0,0,0,0,0
 2023-06-27 18:20:49.296,-187500.0224,-187500.0224,-187500.0224,-172813.2052,-185176.5362,-180514.8116,-187500.0224,-187500.0224,0.346,-0.064,0.92,192,0,0,0,0,0,0,0,0,0,0
 2023-06-27 18:20:49.296,-187500.0224,-187500.0224,-187500.0224,-172658.9781,-184781.782,-180221.8697,-187500.0224,-187500.0224,0.346,-0.064,0.92,192,0,0,0,0,0,0,0,0,0,0
 2023-06-27 18:20:49.296,-187500.0224,-187500.0224,-187500.0224,-171863.5913,-183447.897,-178759.9091,-187500.0224,-187500.0224,0.346,-0.064,0.92,192,0,0,0,0,0,0,0,0,0,0
 2023-06-27 18:20:49.296,-187500.0224,-187500.0224,-187500.0224,-171567.0731,-183091.9454,-178225.613,-187500.0224,-187500.0224,0.346,-0.064,0.92,192,0,0,0,0,0,0,0,0,0,0
 2023-06-27 18:20:49.296,-187500.0224,-187500.0224,-187500.0224,-172142.6975,-184150.3676,-179292.8865,-187500.0224,-187500.0224,0.346,-0.064,0.92,192,0,0,0,0,0,0,0,0,0,0
 2023-06-27 18:20:49.296,-187500.0224,-187500.0224,-187500.0224,-172803.3033,-185167.9978,-180500.0148,-187500.0224,-187500.0224,0.346,-0.064,0.92,192,0,0,0,0,0,0,0,0,0,0
 2023-06-27 18:20:49.296,-187500.0224,-187500.0224,-187500.0224,-172662.018,-184794.2766,-180231.0339,-187500.0224,-187500.0224,0.348,-0.064,0.918,192,10,224,254,0,28,176,0,0,0,0
 2023-06-27 18:20:49.296,-187500.0224,-187500.0224,-187500.0224,-171869.4698,-183461.9115,-178773.6554,-187500.0224,-187500.0224,0.348,-0.064,0.918,192,0,0,0,0,0,0,0,0,0,0
 2023-06-27 18:20:49.296,-187500.0224,-187500.0224,-187500.0224,-171562.4686,-183087.4974,-178220.1368,-187500.0224,-187500.0224,0.348,-0.064,0.918,192,0,0,0,0,0,0,0,0,0,0
 2023-06-27 18:20:49.296,-187500.0224,-187500.0224,-187500.0224,-172128.8171,-184131.6592,-179270.0206,-187500.0224,-187500.0224,0.348,-0.064,0.918,192,0,0,0,0,0,0,0,0,0,0
 2023-06-27 18:20:49.296,-187500.0224,-187500.0224,-187500.0224,-172797.2013,-185163.8851,-180491.4541,-187500.0224,-187500.0224,0.348,-0.064,0.918,192,0,0,0,0,0,0,0,0,0,0
 2023-06-27 18:20:49.296,-187500.0224,-187500.0224,-187500.0224,-172667.673,-184809.4088,-180244.512,-187500.0224,-187500.0224,0.348,-0.064,0.918,192,0,0,0,0,0,0,0,0,0,0
 2023-06-27 18:20:49.296,-187500.0224,-187500.0224,-187500.0224,-171878.8128,-183478.8988,-178791.8721,-187500.0224,-187500.0224,0.348,-0.064,0.918,192,0,0,0,0,0,0,0,0,0,0
 2023-06-27 18:20:49.296,-187500.0224,-187500.0224,-187500.0224,-171561.8204,-183085.4858,-178218.0581,-187500.0224,-187500.0224,0.348,-0.064,0.918,192,0,0,0,0,0,0,0,0,0,0
 2023-06-27 18:20:49.296,-187500.0224,-187500.0224,-187500.0224,-172118.4235,-184116.0129,-179251.1781,-187500.0224,-187500.0224,0.348,-0.064,0.918,192,0,0,0,0,0,0,0,0,0,0
 2023-06-27 18:20:49.296,-187500.0224,-187500.0224,-187500.0224,-172793.8709,-185162.4769,-180486.4026,-187500.0224,-187500.0224,0.348,-0.064,0.918,192,0,0,0,0,0,0,0,0,0,0
 2023-06-27 18:20:49.296,-187500.0224,-187500.0224,-187500.0224,-172680.0558,-184831.0229,-180265.0756,-187500.0224,-187500.0224,0.346,-0.068,0.916,192,10,208,253,224,28,160,0,0,0,0
 2023-06-27 18:20:49.296,-187500.0224,-187500.0224,-187500.0224,-171892.9168,-183500.9153,-178815.7214,-187500.0224,-187500.0224,0.346,-0.068,0.916,192,0,0,0,0,0,0,0,0,0,0
 2023-06-27 18:20:49.296,-187500.0224,-187500.0224,-187500.0224,-171562.0663,-183084.6364,-178217.9687,-187500.0224,-187500.0224,0.346,-0.068,0.916,192,0,0,0,0,0,0,0,0,0,0
 2023-06-27 18:20:49.296,-187500.0224,-187500.0224,-187500.0224,-172104.7219,-184093.84,-179225.6971,-187500.0224,-187500.0224,0.346,-0.068,0.916,192,0,0,0,0,0,0,0,0,0,0
 2023-06-27 18:20:49.296,-187500.0224,-187500.0224,-187500.0224,-172791.0099,-185159.7947,-180479.25,-187500.0224,-187500.0224,0.346,-0.068,0.916,192,0,0,0,0,0,0,0,0,0,0
 2023-06-27 18:20:49.296,-187500.0224,-187500.0224,-187500.0224,-172691.2987,-184851.5642,-180284.1863,-187500.0224,-187500.0224,0.346,-0.068,0.916,192,0,0,0,0,0,0,0,0,0,0
 2023-06-27 18:20:49.296,-187500.0224,-187500.0224,-187500.0224,-171903.5115,-183520.1601,-178837.0226,-187500.0224,-187500.0224,0.346,-0.068,0.916,192,0,0,0,0,0,0,0,0,0,0
 2023-06-27 18:20:49.296,-187500.0224,-187500.0224,-187500.0224,-171560.0323,-183081.9989,-178216.3594,-187500.0224,-187500.0224,0.346,-0.068,0.916,192,0,0,0,0,0,0,0,0,0,0
 2023-06-27 18:20:49.296,-187500.0224,-187500.0224,-187500.0224,-172095.9377,-184078.8867,-179208.3969,-187500.0224,-187500.0224,0.346,-0.068,0.916,192,0,0,0,0,0,0,0,0,0,0
 2023-06-27 18:20:49.296,-187500.0224,-187500.0224,-187500.0224,-172787.5677,-185157.0231,-180473.1703,-187500.0224,-187500.0224,0.346,-0.068,0.916,192,0,0,0,0,0,0,0,0,0,0
 2023-06-27 18:20:49.296,-187500.0224,-187500.0224,-187500.0224,-172698.5184,-184866.6963,-180298.2009,-187500.0224,-187500.0224,0.35,-0.068,0.918,192,10,240,253,224,28,176,0,0,0,0
 2023-06-27 18:20:49.296,-187500.0224,-187500.0224,-187500.0224,-171914.3298,-183537.818,-178856.3345,-187500.0224,-187500.0224,0.35,-0.068,0.918,192,0,0,0,0,0,0,0,0,0,0
 2023-06-27 18:20:49.296,-187500.0224,-187500.0224,-187500.0224,-171558.6688,-183079.1602,-178213.8113,-187500.0224,-187500.0224,0.35,-0.068,0.918,192,0,0,0,0,0,0,0,0,0,0
 2023-06-27 18:20:49.296,-187500.0224,-187500.0224,-187500.0224,-172080.9397,-184056.9596,-179183.2065,-187500.0224,-187500.0224,0.35,-0.068,0.918,192,0,0,0,0,0,0,0,0,0,0
 2023-06-27 18:20:49.296,-187500.0224,-187500.0224,-187500.0224,-172780.661,-185150.407,-180462.1286,-187500.0224,-187500.0224,0.35,-0.068,0.918,192,0,0,0,0,0,0,0,0,0,0
 2023-06-27 18:20:49.296,-187500.0224,-187500.0224,-187500.0224,-172705.1792,-184881.8284,-180311.8131,-187500.0224,-187500.0224,0.35,-0.068,0.918,192,0,0,0,0,0,0,0,0,0,0
 2023-06-27 18:20:49.296,-187500.0224,-187500.0224,-187500.0224,-171925.8633,-183557.0852,-178877.2111,-187500.0224,-187500.0224,0.35,-0.068,0.918,192,0,0,0,0,0,0,0,0,0,0
 2023-06-27 18:20:49.296,-187500.0224,-187500.0224,-187500.0224,-171557.3724,-183076.1651,-178211.3973,-187500.0224,-187500.0224,0.35,-0.068,0.918,192,0,0,0,0,0,0,0,0,0,0
 2023-06-27 18:20:49.296,-187500.0224,-187500.0224,-187500.0224,-172070.1214,-184037.9607,-179161.1229,-187500.0224,-187500.0224,0.35,-0.068,0.918,192,0,0,0,0,0,0,0,0,0,0
 2023-06-27 18:20:49.296,-187500.0224,-187500.0224,-187500.0224,-172774.4919,-185143.6791,-180451.1986,-187500.0224,-187500.0224,0.35,-0.068,0.918,192,0,0,0,0,0,0,0,0,0,0
 2023-06-27 18:20:49.296,-187500.0224,-187500.0224,-187500.0224,-172709.9848,-184894.4348,-180322.4525,-187500.0224,-187500.0224,0.344,-0.066,0.92,192,10,192,253,240,28,192,0,0,0,0
 2023-06-27 18:20:49.296,-187500.0224,-187500.0224,-187500.0224,-171937.9556,-183576.7995,-178898.177,-187500.0224,-187500.0224,0.344,-0.066,0.92,192,0,0,0,0,0,0,0,0,0,0
 2023-06-27 18:20:49.296,-187500.0224,-187500.0224,-187500.0224,-171559.6076,-183076.7909,-178212.1349,-187500.0224,-187500.0224,0.344,-0.066,0.92,192,0,0,0,0,0,0,0,0,0,0
 2023-06-27 18:20:49.296,-187500.0224,-187500.0224,-187500.0224,-172057.7609,-184017.4194,-179136.7372,-187500.0224,-187500.0224,0.344,-0.066,0.92,192,0,0,0,0,0,0,0,0,0,0
 2023-06-27 18:20:49.296,-187500.0224,-187500.0224,-187500.0224,-172770.6474,-185139.477,-180441.7885,-187500.0224,-187500.0224,0.344,-0.066,0.92,192,0,0,0,0,0,0,0,0,0,0
 2023-06-27 18:20:49.296,-187500.0224,-187500.0224,-187500.0224,-172719.9984,-184912.7409,-180338.2329,-187500.0224,-187500.0224,0.344,-0.066,0.92,192,0,0,0,0,0,0,0,0,0,0
 2023-06-27 18:20:49.296,-187500.0224,-187500.0224,-187500.0224,-171948.662,-183595.5302,-178917.7348,-187500.0224,-187500.0224,0.344,-0.066,0.92,192,0,0,0,0,0,0,0,0,0,0
 2023-06-27 18:20:49.296,-187500.0224,-187500.0224,-187500.0224,-171559.6076,-183075.6957,-178211.0397,-187500.0224,-187500.0224,0.344,-0.066,0.92,192,0,0,0,0,0,0,0,0,0,0
 2023-06-27 18:20:49.296,-187500.0224,-187500.0224,-187500.0224,-172046.2945,-183999.2027,-179115.2348,-187500.0224,-187500.0224,0.344,-0.066,0.92,192,0,0,0,0,0,0,0,0,0,0
 2023-06-27 18:20:49.296,-187500.0224,-187500.0224,-187500.0224,-172764.6125,-185133.2632,-180431.0597,-187500.0224,-187500.0224,0.344,-0.066,0.92,192,0,0,0,0,0,0,0,0,0,0
 2023-06-27 18:20:49.296,-187500.0224,-187500.0224,-187500.0224,-172726.9945,-184927.4707,-180350.8616,-187500.0224,-187500.0224,0.342,-0.066,0.924,192,10,176,253,240,28,224,0,0,0,0
 2023-06-27 18:20:49.296,-187500.0224,-187500.0224,-187500.0224,-171961.0226,-183616.2056,-178939.6395,-187500.0224,-187500.0224,0.342,-0.066,0.924,192,0,0,0,0,0,0,0,0,0,0
 2023-06-27 18:20:49.296,-187500.0224,-187500.0224,-187500.0224,-171557.8194,-183073.617,-178209.4751,-187500.0224,-187500.0224,0.342,-0.066,0.924,192,0,0,0,0,0,0,0,0,0,0
 2023-06-27 18:20:49.296,-187500.0224,-187500.0224,-187500.0224,-172035.6997,-183982.4836,-179095.8111,-187500.0224,-187500.0224,0.342,-0.066,0.924,192,0,0,0,0,0,0,0,0,0,0
 2023-06-27 18:20:49.296,-187500.0224,-187500.0224,-187500.0224,-172764.5231,-185133.5538,-180427.7963,-187500.0224,-187500.0224,0.342,-0.066,0.924,192,0,0,0,0,0,0,0,0,0,0
 2023-06-27 18:20:49.296,-187500.0224,-187500.0224,-187500.0224,-172738.9303,-184947.4084,-180369.6594,-187500.0224,-187500.0224,0.342,-0.066,0.924,192,0,0,0,0,0,0,0,0,0,0
 2023-06-27 18:20:49.296,-187500.0224,-187500.0224,-187500.0224,-171977.0264,-183640.5243,-178966.0593,-187500.0224,-187500.0224,0.342,-0.066,0.924,192,0,0,0,0,0,0,0,0,0,0
 2023-06-27 18:20:49.296,-187500.0224,-187500.0224,-187500.0224,-171559.9428,-183075.6286,-178212.9172,-187500.0224,-187500.0224,0.342,-0.066,0.924,192,0,0,0,0,0,0,0,0,0,0
 2023-06-27 18:20:49.296,-187500.0224,-187500.0224,-187500.0224,-172023.1604,-183963.2835,-179074.6664,-187500.0224,-187500.0224,0.342,-0.066,0.924,192,0,0,0,0,0,0,0,0,0,0
 2023-06-27 18:20:49.296,-187500.0224,-187500.0224,-187500.0224,-172756.9905,-185126.1106,-180417.0675,-187500.0224,-187500.0224,0.342,-0.066,0.924,192,0,0,0,0,0,0,0,0,0,0
 2023-06-27 18:20:49.296,-187500.0224,-187500.0224,-187500.0224,-172745.5911,-184962.0712,-180383.4728,-187500.0224,-187500.0224,0.34,-0.068,0.92,192,10,160,253,224,28,192,0,0,0,0
 2023-06-27 18:20:49.296,-187500.0224,-187500.0224,-187500.0224,-171988.5152,-183659.948,-178987.8969,-187500.0224,-187500.0224,0.34,-0.068,0.92,192,0,0,0,0,0,0,0,0,0,0
 2023-06-27 18:20:49.296,-187500.0224,-187500.0224,-187500.0224,-171562.3121,-183076.6345,-178215.4653,-187500.0224,-187500.0224,0.34,-0.068,0.92,192,0,0,0,0,0,0,0,0,0,0
 2023-06-27 18:20:49.774,-187500.0224,-187500.0224,-187500.0224,-172016.142,-183948.6207,-179057.9696,-187500.0224,-187500.0224,0.34,-0.068,0.92,192,0,0,0,0,0,0,0,0,0,0
 2023-06-27 18:20:49.774,-187500.0224,-187500.0224,-187500.0224,-172752.1402,-185120.6568,-180408.2385,-187500.0224,-187500.0224,0.34,-0.068,0.92,192,0,0,0,0,0,0,0,0,0,0
 2023-06-27 18:20:49.774,-187500.0224,-187500.0224,-187500.0224,-172749.1227,-184973.2247,-180393.464,-187500.0224,-187500.0224,0.34,-0.068,0.92,192,0,0,0,0,0,0,0,0,0,0
 2023-06-27 18:20:49.774,-187500.0224,-187500.0224,-187500.0224,-171995.0866,-183674.9907,-179005.0631,-187500.0224,-187500.0224,0.34,-0.068,0.92,192,0,0,0,0,0,0,0,0,0,0
 2023-06-27 18:20:49.774,-187500.0224,-187500.0224,-187500.0224,-171557.3947,-183071.5383,-178212.0008,-187500.0224,-187500.0224,0.34,-0.068,0.92,192,0,0,0,0,0,0,0,0,0,0
 2023-06-27 18:20:49.774,-187500.0224,-187500.0224,-187500.0224,-171999.3558,-183924.235,-179031.9075,-187500.0224,-187500.0224,0.34,-0.068,0.92,192,0,0,0,0,0,0,0,0,0,0
 2023-06-27 18:20:49.774,-187500.0224,-187500.0224,-187500.0224,-172740.2491,-185107.2681,-180391.4524,-187500.0224,-187500.0224,0.34,-0.068,0.92,192,0,0,0,0,0,0,0,0,0,0
 2023-06-27 18:20:49.774,-187500.0224,-187500.0224,-187500.0224,-172753.2131,-184983.8865,-180402.74,-187500.0224,-187500.0224,0.342,-0.062,0.92,192,10,176,254,16,28,192,0,0,0,0
 2023-06-27 18:20:49.774,-187500.0224,-187500.0224,-187500.0224,-172008.9894,-183697.0071,-179028.9571,-187500.0224,-187500.0224,0.342,-0.062,0.92,192,0,0,0,0,0,0,0,0,0,0
 2023-06-27 18:20:49.774,-187500.0224,-187500.0224,-187500.0224,-171559.6523,-183073.2147,-178214.9736,-187500.0224,-187500.0224,0.342,-0.062,0.92,192,0,0,0,0,0,0,0,0,0,0
 2023-06-27 18:20:49.774,-187500.0224,-187500.0224,-187500.0224,-171985.3636,-183903.1573,-179008.617,-187500.0224,-187500.0224,0.342,-0.062,0.92,192,0,0,0,0,0,0,0,0,0,0
 2023-06-27 18:20:49.775,-187500.0224,-187500.0224,-187500.0224,-172736.494,-185102.7978,-180383.4281,-187500.0224,-187500.0224,0.342,-0.062,0.92,192,0,0,0,0,0,0,0,0,0,0
 2023-06-27 18:20:49.775,-187500.0224,-187500.0224,-187500.0224,-172761.1032,-184999.108,-180416.8216,-187500.0224,-187500.0224,0.342,-0.062,0.92,192,0,0,0,0,0,0,0,0,0,0
 2023-06-27 18:20:49.775,-187500.0224,-187500.0224,-187500.0224,-172019.8076,-183715.9614,-179049.9677,-187500.0224,-187500.0224,0.342,-0.062,0.92,192,0,0,0,0,0,0,0,0,0,0
 2023-06-27 18:20:49.775,-187500.0224,-187500.0224,-187500.0224,-171562.4015,-183075.2263,-178218.2817,-187500.0224,-187500.0224,0.342,-0.062,0.92,192,0,0,0,0,0,0,0,0,0,0
 2023-06-27 18:20:49.775,-187500.0224,-187500.0224,-187500.0224,-171979.3733,-183888.9416,-178992.0543,-187500.0224,-187500.0224,0.342,-0.062,0.92,192,0,0,0,0,0,0,0,0,0,0
 2023-06-27 18:20:49.775,-187500.0224,-187500.0224,-187500.0224,-172731.6213,-185096.0475,-180372.5651,-187500.0224,-187500.0224,0.342,-0.062,0.92,192,0,0,0,0,0,0,0,0,0,0
 2023-06-27 18:20:49.775,-187500.0224,-187500.0224,-187500.0224,-172768.1217,-185012.832,-180428.5563,-187500.0224,-187500.0224,0.342,-0.066,0.924,192,10,176,253,240,28,224,0,0,0,0
 2023-06-27 18:20:49.775,-187500.0224,-187500.0224,-187500.0224,-172030.5588,-183734.8039,-179070.3302,-187500.0224,-187500.0224,0.342,-0.066,0.924,192,0,0,0,0,0,0,0,0,0,0
 2023-06-27 18:20:49.775,-187500.0224,-187500.0224,-187500.0224,-171555.7184,-183067.4703,-178211.375,-187500.0224,-187500.0224,0.342,-0.066,0.924,192,0,0,0,0,0,0,0,0,0,0
 2023-06-27 18:20:49.775,-187500.0224,-187500.0224,-187500.0224,-171959.4803,-183860.5549,-178960.6725,-187500.0224,-187500.0224,0.342,-0.066,0.924,192,0,0,0,0,0,0,0,0,0,0
 2023-06-27 18:20:49.775,-187500.0224,-187500.0224,-187500.0224,-172719.149,-185082.3906,-180354.0132,-187500.0224,-187500.0224,0.342,-0.066,0.924,192,0,0,0,0,0,0,0,0,0,0
 2023-06-27 18:20:49.775,-187500.0224,-187500.0224,-187500.0224,-172768.6134,-185020.7669,-180434.1665,-187500.0224,-187500.0224,0.342,-0.066,0.924,192,0,0,0,0,0,0,0,0,0,0
 2023-06-27 18:20:49.775,-187500.0224,-187500.0224,-187500.0224,-172040.7736,-183753.6241,-179090.402,-187500.0224,-187500.0224,0.342,-0.066,0.924,192,0,0,0,0,0,0,0,0,0,0
 2023-06-27 18:20:49.775,-187500.0224,-187500.0224,-187500.0224,-171556.7018,-183067.8502,-178212.4031,-187500.0224,-187500.0224,0.342,-0.066,0.924,192,0,0,0,0,0,0,0,0,0,0
 2023-06-27 18:20:49.775,-187500.0224,-187500.0224,-187500.0224,-171947.8797,-183841.8017,-178939.3266,-187500.0224,-187500.0224,0.342,-0.066,0.924,192,0,0,0,0,0,0,0,0,0,0
 2023-06-27 18:20:49.775,-187500.0224,-187500.0224,-187500.0224,-172710.0742,-185071.7065,-180339.2834,-187500.0224,-187500.0224,0.342,-0.066,0.924,192,0,0,0,0,0,0,0,0,0,0
 2023-06-27 18:20:49.775,-187500.0224,-187500.0224,-187500.0224,-172771.1392,-185029.5511,-180440.7603,-187500.0224,-187500.0224,0.344,-0.068,0.92,192,10,192,253,224,28,192,0,0,0,0
 2023-06-27 18:20:49.775,-187500.0224,-187500.0224,-187500.0224,-172048.6637,-183769.8068,-179107.5905,-187500.0224,-187500.0224,0.344,-0.068,0.92,192,0,0,0,0,0,0,0,0,0,0
 2023-06-27 18:20:49.775,-187500.0224,-187500.0224,-187500.0224,-171555.6513,-183066.2633,-178211.2856,-187500.0224,-187500.0224,0.344,-0.068,0.92,192,0,0,0,0,0,0,0,0,0,0
 2023-06-27 18:20:49.775,-187500.0224,-187500.0224,-187500.0224,-171929.9536,-183815.0467,-178909.3082,-187500.0224,-187500.0224,0.344,-0.068,0.92,192,0,0,0,0,0,0,0,0,0,0
 2023-06-27 18:20:49.775,-187500.0224,-187500.0224,-187500.0224,-172697.9372,-185057.2896,-180319.6362,-187500.0224,-187500.0224,0.344,-0.068,0.92,192,0,0,0,0,0,0,0,0,0,0
 2023-06-27 18:20:49.775,-187500.0224,-187500.0224,-187500.0224,-172773.4191,-185038.4247,-180446.7282,-187500.0224,-187500.0224,0.344,-0.068,0.92,192,0,0,0,0,0,0,0,0,0,0
 2023-06-27 18:20:49.775,-187500.0224,-187500.0224,-187500.0224,-172058.2526,-183788.0682,-179126.3213,-187500.0224,-187500.0224,0.344,-0.068,0.92,192,0,0,0,0,0,0,0,0,0,0
 2023-06-27 18:20:49.775,-187500.0224,-187500.0224,-187500.0224,-171550.3987,-183060.9436,-178206.0776,-187500.0224,-187500.0224,0.344,-0.068,0.92,192,0,0,0,0,0,0,0,0,0,0
 2023-06-27 18:20:49.775,-187500.0224,-187500.0224,-187500.0224,-171913.0781,-183790.4821,-178881.2567,-187500.0224,-187500.0224,0.344,-0.068,0.92,192,0,0,0,0,0,0,0,0,0,0
 2023-06-27 18:20:49.775,-187500.0224,-187500.0224,-187500.0224,-172687.4989,-185045.4879,-180302.2913,-187500.0224,-187500.0224,0.344,-0.068,0.92,192,0,0,0,0,0,0,0,0,0,0
 2023-06-27 18:20:49.775,-187500.0224,-187500.0224,-187500.0224,-172776.2354,-185048.5724,-180453.6126,-187500.0224,-187500.0224,0.342,-0.072,0.922,192,10,176,253,192,28,208,0,0,0,0
 2023-06-27 18:20:49.775,-187500.0224,-187500.0224,-187500.0224,-172069.1379,-183808.3859,-179147.1978,-187500.0224,-187500.0224,0.342,-0.072,0.922,192,0,0,0,0,0,0,0,0,0,0
 2023-06-27 18:20:49.775,-187500.0224,-187500.0224,-187500.0224,-171554.3326,-183065.5704,-178211.1514,-187500.0224,-187500.0224,0.342,-0.072,0.922,192,0,0,0,0,0,0,0,0,0,0
 2023-06-27 18:20:49.776,-187500.0224,-187500.0224,-187500.0224,-171906.3949,-183777.2499,-178865.4764,-187500.0224,-187500.0224,0.342,-0.072,0.922,192,0,0,0,0,0,0,0,0,0,0
 2023-06-27 18:20:49.776,-187500.0224,-187500.0224,-187500.0224,-172682.6263,-185039.0506,-180291.7636,-187500.0224,-187500.0224,0.342,-0.072,0.922,192,0,0,0,0,0,0,0,0,0,0
 2023-06-27 18:20:49.776,-187500.0224,-187500.0224,-187500.0224,-172783.2985,-185062.2517,-180465.2131,-187500.0224,-187500.0224,0.342,-0.072,0.922,192,0,0,0,0,0,0,0,0,0,0
 2023-06-27 18:20:49.776,-187500.0224,-187500.0224,-187500.0224,-172085.1641,-183833.5316,-179173.5505,-187500.0224,-187500.0224,0.342,-0.072,0.922,192,0,0,0,0,0,0,0,0,0,0
 2023-06-27 18:20:49.776,-187500.0224,-187500.0224,-187500.0224,-171557.7077,-183069.3255,-178215.7783,-187500.0224,-187500.0224,0.342,-0.072,0.922,192,0,0,0,0,0,0,0,0,0,0
 2023-06-27 18:20:49.776,-187500.0224,-187500.0224,-187500.0224,-171895.3084,-183758.765,-178844.3987,-187500.0224,-187500.0224,0.342,-0.072,0.922,192,0,0,0,0,0,0,0,0,0,0
 2023-06-27 18:20:49.776,-187500.0224,-187500.0224,-187500.0224,-172677.4183,-185031.7416,-180279.5372,-187500.0224,-187500.0224,0.342,-0.072,0.922,192,0,0,0,0,0,0,0,0,0,0
 2023-06-27 18:20:49.776,-187500.0224,-187500.0224,-187500.0224,-172789.4006,-185074.8134,-180474.8467,-187500.0224,-187500.0224,0.342,-0.068,0.928,192,10,176,253,224,29,0,0,0,0,0
 2023-06-27 18:20:49.776,-187500.0224,-187500.0224,-187500.0224,-172096.2953,-183853.5364,-179194.1588,-187500.0224,-187500.0224,0.342,-0.068,0.928,192,0,0,0,0,0,0,0,0,0,0
 2023-06-27 18:20:49.776,-187500.0224,-187500.0224,-187500.0224,-171559.8087,-183071.6724,-178218.4381,-187500.0224,-187500.0224,0.342,-0.068,0.928,192,0,0,0,0,0,0,0,0,0,0
 2023-06-27 18:20:49.776,-187500.0224,-187500.0224,-187500.0224,-171885.7866,-183743.1188,-178826.182,-187500.0224,-187500.0224,0.342,-0.068,0.928,192,0,0,0,0,0,0,0,0,0,0
 2023-06-27 18:20:49.776,-187500.0224,-187500.0224,-187500.0224,-172670.601,-185023.8067,-180267.5119,-187500.0224,-187500.0224,0.342,-0.068,0.928,192,0,0,0,0,0,0,0,0,0,0
 2023-06-27 18:20:49.776,-187500.0224,-187500.0224,-187500.0224,-172796.7319,-185088.6715,-180486.4026,-187500.0224,-187500.0224,0.342,-0.068,0.928,192,0,0,0,0,0,0,0,0,0,0
 2023-06-27 18:20:49.776,-187500.0224,-187500.0224,-187500.0224,-172109.1029,-183875.3741,-179217.0917,-187500.0224,-187500.0224,0.342,-0.068,0.928,192,0,0,0,0,0,0,0,0,0,0
 2023-06-27 18:20:49.776,-187500.0224,-187500.0224,-187500.0224,-171560.0323,-183072.2312,-178220.0921,-187500.0224,-187500.0224,0.342,-0.068,0.928,192,0,0,0,0,0,0,0,0,0,0
 2023-06-27 18:20:49.776,-187500.0224,-187500.0224,-187500.0224,-171873.8284,-183722.8011,-178803.3609,-187500.0224,-187500.0224,0.342,-0.068,0.928,192,0,0,0,0,0,0,0,0,0,0
 2023-06-27 18:20:49.776,-187500.0224,-187500.0224,-187500.0224,-172658.5311,-185008.5628,-180247.2166,-187500.0224,-187500.0224,0.342,-0.068,0.928,192,0,0,0,0,0,0,0,0,0,0
 2023-06-27 18:20:49.776,-187500.0224,-187500.0224,-187500.0224,-172794.7203,-185093.1418,-180488.0342,-187500.0224,-187500.0224,0.346,-0.07,0.922,192,10,208,253,208,28,208,0,0,0,0
 2023-06-27 18:20:49.776,-187500.0224,-187500.0224,-187500.0224,-172117.753,-183893.546,-179236.2024,-187500.0224,-187500.0224,0.346,-0.07,0.922,192,0,0,0,0,0,0,0,0,0,0
 2023-06-27 18:20:49.776,-187500.0224,-187500.0224,-187500.0224,-171559.1829,-183071.7171,-178220.2039,-187500.0224,-187500.0224,0.346,-0.07,0.922,192,0,0,0,0,0,0,0,0,0,0
 2023-06-27 18:20:49.776,-187500.0224,-187500.0224,-187500.0224,-171857.2658,-183699.5552,-178777.6117,-187500.0224,-187500.0224,0.346,-0.07,0.922,192,0,0,0,0,0,0,0,0,0,0
 2023-06-27 18:20:49.776,-187500.0224,-187500.0224,-187500.0224,-172649.2104,-184997.2528,-180231.3692,-187500.0224,-187500.0224,0.346,-0.07,0.922,192,0,0,0,0,0,0,0,0,0,0
 2023-06-27 18:20:49.776,-187500.0224,-187500.0224,-187500.0224,-172797.9166,-185102.3731,-180494.5163,-187500.0224,-187500.0224,0.346,-0.07,0.922,192,0,0,0,0,0,0,0,0,0,0
 2023-06-27 18:20:49.776,-187500.0224,-187500.0224,-187500.0224,-172125.889,-183910.7345,-179253.9721,-187500.0224,-187500.0224,0.346,-0.07,0.922,192,0,0,0,0,0,0,0,0,0,0
 2023-06-27 18:20:49.776,-187500.0224,-187500.0224,-187500.0224,-171558.043,-183071.1583,-178220.2039,-187500.0224,-187500.0224,0.346,-0.07,0.922,192,0,0,0,0,0,0,0,0,0,0
 2023-06-27 18:20:49.776,-187500.0224,-187500.0224,-187500.0224,-171844.5029,-183678.6787,-178753.6283,-187500.0224,-187500.0224,0.346,-0.07,0.922,192,0,0,0,0,0,0,0,0,0,0
 2023-06-27 18:20:49.776,-187500.0224,-187500.0224,-187500.0224,-172636.0899,-184981.1596,-180209.5092,-187500.0224,-187500.0224,0.346,-0.07,0.922,192,0,0,0,0,0,0,0,0,0,0
 2023-06-27 18:20:49.776,-187500.0224,-187500.0224,-187500.0224,-172800.107,-185110.5762,-180499.076,-187500.0224,-187500.0224,0.344,-0.064,0.92,192,10,192,254,0,28,192,0,0,0,0
 2023-06-27 18:20:49.776,-187500.0224,-187500.0224,-187500.0224,-172140.5965,-183934.6956,-179277.9108,-187500.0224,-187500.0224,0.344,-0.064,0.92,192,0,0,0,0,0,0,0,0,0,0
 2023-06-27 18:20:49.776,-187500.0224,-187500.0224,-187500.0224,-171559.1158,-183072.8123,-178221.7909,-187500.0224,-187500.0224,0.344,-0.064,0.92,192,0,0,0,0,0,0,0,0,0,0
 2023-06-27 18:20:49.776,-187500.0224,-187500.0224,-187500.0224,-171829.3037,-183656.8187,-178728.7061,-187500.0224,-187500.0224,0.344,-0.064,0.92,192,0,0,0,0,0,0,0,0,0,0
 2023-06-27 18:20:49.776,-187500.0224,-187500.0224,-187500.0224,-172623.0812,-184965.8486,-180189.0797,-187500.0224,-187500.0224,0.344,-0.064,0.92,192,0,0,0,0,0,0,0,0,0,0
 2023-06-27 18:20:49.776,-187500.0224,-187500.0224,-187500.0224,-172803.3927,-185119.6957,-180504.9098,-187500.0224,-187500.0224,0.344,-0.064,0.92,192,0,0,0,0,0,0,0,0,0,0
 2023-06-27 18:20:49.776,-187500.0224,-187500.0224,-187500.0224,-172149.5819,-183952.8899,-179296.5075,-187500.0224,-187500.0224,0.344,-0.064,0.92,192,0,0,0,0,0,0,0,0,0,0
 2023-06-27 18:20:49.776,-187500.0224,-187500.0224,-187500.0224,-171559.7193,-183074.444,-178223.8919,-187500.0224,-187500.0224,0.344,-0.064,0.92,192,0,0,0,0,0,0,0,0,0,0
 2023-06-27 18:20:49.776,-187500.0224,-187500.0224,-187500.0224,-171818.9325,-183640.6137,-178710.3106,-187500.0224,-187500.0224,0.344,-0.064,0.92,192,0,0,0,0,0,0,0,0,0,0
 2023-06-27 18:20:49.776,-187500.0224,-187500.0224,-187500.0224,-172614.5429,-184955.5668,-180174.931,-187500.0224,-187500.0224,0.344,-0.064,0.92,192,0,0,0,0,0,0,0,0,0,0
 2023-06-27 18:20:49.776,-187500.0224,-187500.0224,-187500.0224,-172805.2479,-185128.3458,-180511.5483,-187500.0224,-187500.0224,0.346,-0.064,0.924,192,10,208,254,0,28,224,0,0,0,0
 2023-06-27 18:20:49.776,-187500.0224,-187500.0224,-187500.0224,-172164.0434,-183977.7004,-179323.3295,-187500.0224,-187500.0224,0.346,-0.064,0.924,192,0,0,0,0,0,0,0,0,0,0
 2023-06-27 18:20:49.777,-187500.0224,-187500.0224,-187500.0224,-171563.1391,-183077.7521,-178229.3458,-187500.0224,-187500.0224,0.346,-0.064,0.924,192,0,0,0,0,0,0,0,0,0,0
 2023-06-27 18:20:49.777,-187500.0224,-187500.0224,-187500.0224,-171807.6672,-183619.2007,-178686.886,-187500.0224,-187500.0224,0.346,-0.064,0.924,192,0,0,0,0,0,0,0,0,0,0
 2023-06-27 18:20:49.777,-187500.0224,-187500.0224,-187500.0224,-172606.8315,-184942.2675,-180156.1779,-187500.0224,-187500.0224,0.346,-0.064,0.924,192,0,0,0,0,0,0,0,0,0,0
 2023-06-27 18:20:49.777,-187500.0224,-187500.0224,-187500.0224,-172807.7513,-185135.7219,-180515.3034,-187500.0224,-187500.0224,0.346,-0.064,0.924,192,0,0,0,0,0,0,0,0,0,0
 2023-06-27 18:20:49.777,-187500.0224,-187500.0224,-187500.0224,-172170.1231,-183993.4583,-179339.1546,-187500.0224,-187500.0224,0.346,-0.064,0.924,192,0,0,0,0,0,0,0,0,0,0
 2023-06-27 18:20:49.777,-187500.0224,-187500.0224,-187500.0224,-171559.764,-183075.3604,-178227.4235,-187500.0224,-187500.0224,0.346,-0.064,0.924,192,0,0,0,0,0,0,0,0,0,0
 2023-06-27 18:20:49.777,-187500.0224,-187500.0224,-187500.0224,-171795.0385,-183599.3077,-178664.3331,-187500.0224,-187500.0224,0.346,-0.064,0.924,192,0,0,0,0,0,0,0,0,0,0
 2023-06-27 18:20:49.777,-187500.0224,-187500.0224,-187500.0224,-172592.504,-184924.4755,-180133.3121,-187500.0224,-187500.0224,0.346,-0.064,0.924,192,0,0,0,0,0,0,0,0,0,0
 2023-06-27 18:20:49.777,-187500.0224,-187500.0224,-187500.0224,-172805.4491,-185138.7841,-180515.1022,-187500.0224,-187500.0224,0.346,-0.064,0.924,192,0,0,0,0,0,0,0,0,0,0
 2023-06-27 18:20:49.777,-187500.0224,-187500.0224,-187500.0224,-172182.7966,-184016.0559,-179362.4451,-187500.0224,-187500.0224,0.346,-0.062,0.922,192,10,208,254,16,28,208,0,0,0,0
 2023-06-27 18:20:49.777,-187500.0224,-187500.0224,-187500.0224,-171566.6484,-183083.5635,-178236.856,-187500.0224,-187500.0224,0.346,-0.062,0.922,192,0,0,0,0,0,0,0,0,0,0
 2023-06-27 18:20:49.777,-187500.0224,-187500.0224,-187500.0224,-171786.2766,-183583.5944,-178647.1222,-187500.0224,-187500.0224,0.346,-0.062,0.922,192,0,0,0,0,0,0,0,0,0,0
 2023-06-27 18:20:49.777,-187500.0224,-187500.0224,-187500.0224,-172585.642,-184914.0149,-180118.8505,-187500.0224,-187500.0224,0.346,-0.062,0.922,192,0,0,0,0,0,0,0,0,0,0
 2023-06-27 18:20:49.777,-187500.0224,-187500.0224,-187500.0224,-172812.9593,-185151.5916,-180525.5852,-187500.0224,-187500.0224,0.346,-0.062,0.922,192,0,0,0,0,0,0,0,0,0,0
 2023-06-27 18:20:49.777,-187500.0224,-187500.0224,-187500.0224,-172200.7674,-184043.5039,-179391.1447,-187500.0224,-187500.0224,0.346,-0.062,0.922,192,0,0,0,0,0,0,0,0,0,0
 2023-06-27 18:20:49.777,-187500.0224,-187500.0224,-187500.0224,-171571.5434,-183090.5373,-178245.6849,-187500.0224,-187500.0224,0.346,-0.062,0.922,192,0,0,0,0,0,0,0,0,0,0
 2023-06-27 18:20:49.777,-187500.0224,-187500.0224,-187500.0224,-171780.7781,-183574.7431,-178638.0474,-187500.0224,-187500.0224,0.346,-0.062,0.922,192,0,0,0,0,0,0,0,0,0,0
 2023-06-27 18:20:49.777,-187500.0224,-187500.0224,-187500.0224,-172582.1775,-184909.4775,-180112.9496,-187500.0224,-187500.0224,0.346,-0.062,0.922,192,0,0,0,0,0,0,0,0,0,0
 2023-06-27 18:20:49.777,-187500.0224,-187500.0224,-187500.0224,-172821.9894,-185165.5615,-180539.6668,-187500.0224,-187500.0224,0.346,-0.062,0.922,192,0,0,0,0,0,0,0,0,0,0
 2023-06-27 18:20:49.777,-187500.0224,-187500.0224,-187500.0224,-172216.6371,-184068.5378,-179419.7773,-187500.0224,-187500.0224,0.342,-0.062,0.922,192,10,176,254,16,28,208,0,0,0,0
 2023-06-27 18:20:49.777,-187500.0224,-187500.0224,-187500.0224,-171580.797,-183101.1543,-178260.3253,-187500.0224,-187500.0224,0.342,-0.062,0.922,192,0,0,0,0,0,0,0,0,0,0
 2023-06-27 18:20:49.777,-187500.0224,-187500.0224,-187500.0224,-171774.6984,-183561.6003,-178626.0669,-187500.0224,-187500.0224,0.342,-0.062,0.922,192,0,0,0,0,0,0,0,0,0,0
 2023-06-27 18:20:49.777,-187500.0224,-187500.0224,-187500.0224,-172572.4769,-184894.9712,-180096.7446,-187500.0224,-187500.0224,0.342,-0.062,0.922,192,0,0,0,0,0,0,0,0,0,0
 2023-06-27 18:20:49.777,-187500.0224,-187500.0224,-187500.0224,-172822.2353,-185169.9648,-180543.9136,-187500.0224,-187500.0224,0.342,-0.062,0.922,192,0,0,0,0,0,0,0,0,0,0
 2023-06-27 18:20:49.777,-187500.0224,-187500.0224,-187500.0224,-172229.3552,-184091.4707,-179446.6665,-187500.0224,-187500.0224,0.342,-0.062,0.922,192,0,0,0,0,0,0,0,0,0,0
 2023-06-27 18:20:49.777,-187500.0224,-187500.0224,-187500.0224,-171581.0876,-183101.3779,-178264.9074,-187500.0224,-187500.0224,0.342,-0.062,0.922,192,0,0,0,0,0,0,0,0,0,0
 2023-06-27 18:20:49.777,-187500.0224,-187500.0224,-187500.0224,-171758.471,-183532.6771,-178597.1437,-187500.0224,-187500.0224,0.342,-0.062,0.922,192,0,0,0,0,0,0,0,0,0,0
 2023-06-27 18:20:49.777,-187500.0224,-187500.0224,-187500.0224,-172556.473,-184869.3561,-180066.3015,-187500.0224,-187500.0224,0.342,-0.062,0.922,192,0,0,0,0,0,0,0,0,0,0
 2023-06-27 18:20:49.777,-187500.0224,-187500.0224,-187500.0224,-172822.2129,-185172.9822,-180543.2878,-187500.0224,-187500.0224,0.342,-0.062,0.922,192,0,0,0,0,0,0,0,0,0,0
 2023-06-27 18:20:49.777,-187500.0224,-187500.0224,-187500.0224,-172242.9004,-184114.493,-179470.024,-187500.0224,-187500.0224,0.342,-0.064,0.922,192,10,176,254,0,28,208,0,0,0,0
 2023-06-27 18:20:49.777,-187500.0224,-187500.0224,-187500.0224,-171589.2236,-183111.1232,-178276.0833,-187500.0224,-187500.0224,0.342,-0.064,0.922,192,0,0,0,0,0,0,0,0,0,0
 2023-06-27 18:20:49.777,-187500.0224,-187500.0224,-187500.0224,-171750.9609,-183517.7238,-178580.9164,-187500.0224,-187500.0224,0.342,-0.064,0.922,192,0,0,0,0,0,0,0,0,0,0
 2023-06-27 18:20:49.777,-187500.0224,-187500.0224,-187500.0224,-172544.4031,-184852.3688,-180045.2909,-187500.0224,-187500.0224,0.342,-0.064,0.922,192,0,0,0,0,0,0,0,0,0,0
 2023-06-27 18:20:49.777,-187500.0224,-187500.0224,-187500.0224,-172823.7105,-185179.4195,-180547.4228,-187500.0224,-187500.0224,0.342,-0.064,0.922,192,0,0,0,0,0,0,0,0,0,0
 2023-06-27 18:20:49.777,-187500.0224,-187500.0224,-187500.0224,-172251.8858,-184133.5144,-179490.8335,-187500.0224,-187500.0224,0.342,-0.064,0.922,192,0,0,0,0,0,0,0,0,0,0
 2023-06-27 18:20:49.777,-187500.0224,-187500.0224,-187500.0224,-171589.0448,-183112.9337,-178280.576,-187500.0224,-187500.0224,0.342,-0.064,0.922,192,0,0,0,0,0,0,0,0,0,0
 2023-06-27 18:20:49.777,-187500.0224,-187500.0224,-187500.0224,-171739.4497,-183500.0436,-178563.3702,-187500.0224,-187500.0224,0.342,-0.064,0.922,192,0,0,0,0,0,0,0,0,0,0
 2023-06-27 18:20:49.777,-187500.0224,-187500.0224,-187500.0224,-172536.5576,-184840.0754,-180030.6952,-187500.0224,-187500.0224,0.342,-0.064,0.922,192,0,0,0,0,0,0,0,0,0,0
 2023-06-27 18:20:49.777,-187500.0224,-187500.0224,-187500.0224,-172825.8786,-185185.0745,-180551.9155,-187500.0224,-187500.0224,0.342,-0.064,0.922,192,0,0,0,0,0,0,0,0,0,0
 2023-06-27 18:20:49.777,-187500.0224,-187500.0224,-187500.0224,-172268.9625,-184159.9341,-179519.5108,-187500.0224,-187500.0224,0.342,-0.064,0.922,192,10,176,254,0,28,208,0,0,0,0
 2023-06-27 18:20:49.777,-187500.0224,-187500.0224,-187500.0224,-171600.3325,-183126.4342,-178297.6303,-187500.0224,-187500.0224,0.342,-0.064,0.922,192,0,0,0,0,0,0,0,0,0,0
 2023-06-27 18:20:50.256,-187500.0224,-187500.0224,-187500.0224,-171733.9512,-183487.8395,-178551.9485,-187500.0224,-187500.0224,0.342,-0.064,0.922,192,0,0,0,0,0,0,0,0,0,0
 2023-06-27 18:20:50.256,-187500.0224,-187500.0224,-187500.0224,-172525.5829,-184823.3562,-180011.5398,-187500.0224,-187500.0224,0.342,-0.064,0.922,192,0,0,0,0,0,0,0,0,0,0
 2023-06-27 18:20:50.256,-187500.0224,-187500.0224,-187500.0224,-172827.7785,-185190.3272,-180556.0283,-187500.0224,-187500.0224,0.342,-0.064,0.922,192,0,0,0,0,0,0,0,0,0,0
 2023-06-27 18:20:50.256,-187500.0224,-187500.0224,-187500.0224,-172282.083,-184182.7553,-179544.9024,-187500.0224,-187500.0224,0.342,-0.064,0.922,192,0,0,0,0,0,0,0,0,0,0
 2023-06-27 18:20:50.256,-187500.0224,-187500.0224,-187500.0224,-171603.3276,-183130.9939,-178305.5652,-187500.0224,-187500.0224,0.342,-0.064,0.922,192,0,0,0,0,0,0,0,0,0,0
 2023-06-27 18:20:50.256,-187500.0224,-187500.0224,-187500.0224,-171724.5187,-183470.7404,-178535.5423,-187500.0224,-187500.0224,0.342,-0.064,0.922,192,0,0,0,0,0,0,0,0,0,0
 2023-06-27 18:20:50.256,-187500.0224,-187500.0224,-187500.0224,-172512.5295,-184804.2008,-179989.9256,-187500.0224,-187500.0224,0.342,-0.064,0.922,192,0,0,0,0,0,0,0,0,0,0
 2023-06-27 18:20:50.256,-187500.0224,-187500.0224,-187500.0224,-172828.7396,-185194.127,-180558.4869,-187500.0224,-187500.0224,0.342,-0.064,0.922,192,0,0,0,0,0,0,0,0,0,0
 2023-06-27 18:20:50.256,-187500.0224,-187500.0224,-187500.0224,-172294.1306,-184203.6765,-179567.8576,-187500.0224,-187500.0224,0.346,-0.068,0.924,192,10,208,253,224,28,224,0,0,0,0
 2023-06-27 18:20:50.256,-187500.0224,-187500.0224,-187500.0224,-171609.2508,-183138.8617,-178316.4729,-187500.0224,-187500.0224,0.346,-0.068,0.924,192,0,0,0,0,0,0,0,0,0,0
 2023-06-27 18:20:50.256,-187500.0224,-187500.0224,-187500.0224,-171715.6898,-183454.5578,-178519.829,-187500.0224,-187500.0224,0.346,-0.068,0.924,192,0,0,0,0,0,0,0,0,0,0
 2023-06-27 18:20:50.256,-187500.0224,-187500.0224,-187500.0224,-172502.7394,-184788.0181,-179970.8372,-187500.0224,-187500.0224,0.346,-0.068,0.924,192,0,0,0,0,0,0,0,0,0,0
 2023-06-27 18:20:50.256,-187500.0224,-187500.0224,-187500.0224,-172831.3771,-185199.7149,-180561.795,-187500.0224,-187500.0224,0.346,-0.068,0.924,192,0,0,0,0,0,0,0,0,0,0
 2023-06-27 18:20:50.256,-187500.0224,-187500.0224,-187500.0224,-172309.0392,-184227.794,-179593.4951,-187500.0224,-187500.0224,0.346,-0.068,0.924,192,0,0,0,0,0,0,0,0,0,0
 2023-06-27 18:20:50.256,-187500.0224,-187500.0224,-187500.0224,-171616.2916,-183147.8248,-178328.364,-187500.0224,-187500.0224,0.346,-0.068,0.924,192,0,0,0,0,0,0,0,0,0,0
 2023-06-27 18:20:50.256,-187500.0224,-187500.0224,-187500.0224,-171710.7054,-183442.9796,-178508.7873,-187500.0224,-187500.0224,0.346,-0.068,0.924,192,0,0,0,0,0,0,0,0,0,0
 2023-06-27 18:20:50.256,-187500.0224,-187500.0224,-187500.0224,-172493.4858,-184772.3943,-179952.5088,-187500.0224,-187500.0224,0.346,-0.068,0.924,192,0,0,0,0,0,0,0,0,0,0
 2023-06-27 18:20:50.256,-187500.0224,-187500.0224,-187500.0224,-172831.0419,-185202.1066,-180562.622,-187500.0224,-187500.0224,0.346,-0.068,0.924,192,0,0,0,0,0,0,0,0,0,0
 2023-06-27 18:20:50.256,-187500.0224,-187500.0224,-187500.0224,-172321.2209,-184249.207,-179616.808,-187500.0224,-187500.0224,0.344,-0.068,0.922,192,10,192,253,224,28,208,0,0,0,0
 2023-06-27 18:20:50.256,-187500.0224,-187500.0224,-187500.0224,-171621.4772,-183155.3797,-178338.9364,-187500.0224,-187500.0224,0.344,-0.068,0.922,192,0,0,0,0,0,0,0,0,0,0
 2023-06-27 18:20:50.256,-187500.0224,-187500.0224,-187500.0224,-171700.1777,-183426.1264,-178492.4705,-187500.0224,-187500.0224,0.344,-0.068,0.922,192,0,0,0,0,0,0,0,0,0,0
 2023-06-27 18:20:50.256,-187500.0224,-187500.0224,-187500.0224,-172478.6442,-184751.8307,-179929.5089,-187500.0224,-187500.0224,0.344,-0.068,0.922,192,0,0,0,0,0,0,0,0,0,0
 2023-06-27 18:20:50.256,-187500.0224,-187500.0224,-187500.0224,-172828.1138,-185201.8607,-180560.8115,-187500.0224,-187500.0224,0.344,-0.068,0.922,192,0,0,0,0,0,0,0,0,0,0
 2023-06-27 18:20:50.256,-187500.0224,-187500.0224,-187500.0224,-172330.4969,-184267.0437,-179636.5445,-187500.0224,-187500.0224,0.344,-0.068,0.922,192,0,0,0,0,0,0,0,0,0,0
 2023-06-27 18:20:50.256,-187500.0224,-187500.0224,-187500.0224,-171625.8581,-183161.3029,-178347.81,-187500.0224,-187500.0224,0.344,-0.068,0.922,192,0,0,0,0,0,0,0,0,0,0
 2023-06-27 18:20:50.256,-187500.0224,-187500.0224,-187500.0224,-171693.8074,-183412.76,-178479.4618,-187500.0224,-187500.0224,0.344,-0.068,0.922,192,0,0,0,0,0,0,0,0,0,0
 2023-06-27 18:20:50.256,-187500.0224,-187500.0224,-187500.0224,-172468.4519,-184734.9551,-179909.7723,-187500.0224,-187500.0224,0.344,-0.068,0.922,192,0,0,0,0,0,0,0,0,0,0
 2023-06-27 18:20:50.256,-187500.0224,-187500.0224,-187500.0224,-172832.7182,-185208.9238,-180565.9748,-187500.0224,-187500.0224,0.344,-0.068,0.922,192,0,0,0,0,0,0,0,0,0,0
 2023-06-27 18:20:50.256,-187500.0224,-187500.0224,-187500.0224,-172346.389,-184292.3235,-179663.3443,-187500.0224,-187500.0224,0.338,-0.066,0.928,192,10,144,253,240,29,0,0,0,0,0
 2023-06-27 18:20:50.256,-187500.0224,-187500.0224,-187500.0224,-171633.9942,-183171.7411,-178360.9975,-187500.0224,-187500.0224,0.338,-0.066,0.928,192,0,0,0,0,0,0,0,0,0,0
 2023-06-27 18:20:50.256,-187500.0224,-187500.0224,-187500.0224,-171684.5315,-183396.5103,-178463.2791,-187500.0224,-187500.0224,0.338,-0.066,0.928,192,0,0,0,0,0,0,0,0,0,0
 2023-06-27 18:20:50.256,-187500.0224,-187500.0224,-187500.0224,-172455.0408,-184714.9726,-179886.5712,-187500.0224,-187500.0224,0.338,-0.066,0.928,192,0,0,0,0,0,0,0,0,0,0
 2023-06-27 18:20:50.256,-187500.0224,-187500.0224,-187500.0224,-172829.9243,-185208.8344,-180563.5831,-187500.0224,-187500.0224,0.338,-0.066,0.928,192,0,0,0,0,0,0,0,0,0,0
 2023-06-27 18:20:50.256,-187500.0224,-187500.0224,-187500.0224,-172353.1616,-184308.0368,-179680.354,-187500.0224,-187500.0224,0.338,-0.066,0.928,192,0,0,0,0,0,0,0,0,0,0
 2023-06-27 18:20:50.256,-187500.0224,-187500.0224,-187500.0224,-171634.4412,-183174.1775,-178365.8926,-187500.0224,-187500.0224,0.338,-0.066,0.928,192,0,0,0,0,0,0,0,0,0,0
 2023-06-27 18:20:50.256,-187500.0224,-187500.0224,-187500.0224,-171675.9708,-183382.1381,-178449.1305,-187500.0224,-187500.0224,0.338,-0.066,0.928,192,0,0,0,0,0,0,0,0,0,0
 2023-06-27 18:20:50.256,-187500.0224,-187500.0224,-187500.0224,-172444.9155,-184699.2147,-179868.1533,-187500.0224,-187500.0224,0.338,-0.066,0.928,192,0,0,0,0,0,0,0,0,0,0
 2023-06-27 18:20:50.256,-187500.0224,-187500.0224,-187500.0224,-172828.4043,-185209.6167,-180562.3538,-187500.0224,-187500.0224,0.338,-0.066,0.928,192,0,0,0,0,0,0,0,0,0,0
 2023-06-27 18:20:50.256,-187500.0224,-187500.0224,-187500.0224,-172364.8068,-184328.511,-179701.9681,-187500.0224,-187500.0224,0.344,-0.064,0.918,192,10,192,254,0,28,176,0,0,0,0
 2023-06-27 18:20:50.256,-187500.0224,-187500.0224,-187500.0224,-171641.6608,-183185.1298,-178380.0189,-187500.0224,-187500.0224,0.344,-0.064,0.918,192,0,0,0,0,0,0,0,0,0,0
 2023-06-27 18:20:50.256,-187500.0224,-187500.0224,-187500.0224,-171672.2157,-183375.0973,-178444.0119,-187500.0224,-187500.0224,0.344,-0.064,0.918,192,0,0,0,0,0,0,0,0,0,0
 2023-06-27 18:20:50.256,-187500.0224,-187500.0224,-187500.0224,-172435.1701,-184685.4013,-179854.1611,-187500.0224,-187500.0224,0.344,-0.064,0.918,192,0,0,0,0,0,0,0,0,0,0
 2023-06-27 18:20:50.256,-187500.0224,-187500.0224,-187500.0224,-172829.4549,-185213.5283,-180566.6006,-187500.0224,-187500.0224,0.344,-0.064,0.918,192,0,0,0,0,0,0,0,0,0,0
 2023-06-27 18:20:50.256,-187500.0224,-187500.0224,-187500.0224,-172379.4249,-184352.0474,-179729.3043,-187500.0224,-187500.0224,0.344,-0.064,0.918,192,0,0,0,0,0,0,0,0,0,0
 2023-06-27 18:20:50.256,-187500.0224,-187500.0224,-187500.0224,-171651.2944,-183196.641,-178396.2462,-187500.0224,-187500.0224,0.344,-0.064,0.918,192,0,0,0,0,0,0,0,0,0,0
 2023-06-27 18:20:50.256,-187500.0224,-187500.0224,-187500.0224,-171667.1865,-183361.5075,-178431.9867,-187500.0224,-187500.0224,0.344,-0.064,0.918,192,0,0,0,0,0,0,0,0,0,0
 2023-06-27 18:20:50.256,-187500.0224,-187500.0224,-187500.0224,-172423.6366,-184663.7201,-179829.3283,-187500.0224,-187500.0224,0.344,-0.064,0.918,192,0,0,0,0,0,0,0,0,0,0
 2023-06-27 18:20:50.256,-187500.0224,-187500.0224,-187500.0224,-172829.3878,-185213.9753,-180564.3655,-187500.0224,-187500.0224,0.344,-0.064,0.918,192,0,0,0,0,0,0,0,0,0,0
 2023-06-27 18:20:50.256,-187500.0224,-187500.0224,-187500.0224,-172388.455,-184368.6994,-179746.2916,-187500.0224,-187500.0224,0.34,-0.07,0.922,192,10,160,253,208,28,208,0,0,0,0
 2023-06-27 18:20:50.256,-187500.0224,-187500.0224,-187500.0224,-171653.999,-183201.089,-178402.4153,-187500.0224,-187500.0224,0.34,-0.07,0.922,192,0,0,0,0,0,0,0,0,0,0
 2023-06-27 18:20:50.256,-187500.0224,-187500.0224,-187500.0224,-171654.1778,-183342.4191,-178412.2724,-187500.0224,-187500.0224,0.34,-0.07,0.922,192,0,0,0,0,0,0,0,0,0,0
 2023-06-27 18:20:50.256,-187500.0224,-187500.0224,-187500.0224,-172403.4753,-184636.0486,-179797.8571,-187500.0224,-187500.0224,0.34,-0.07,0.922,192,0,0,0,0,0,0,0,0,0,0
 2023-06-27 18:20:50.257,-187500.0224,-187500.0224,-187500.0224,-172821.6541,-185207.6051,-180554.8436,-187500.0224,-187500.0224,0.34,-0.07,0.922,192,0,0,0,0,0,0,0,0,0,0
 2023-06-27 18:20:50.257,-187500.0224,-187500.0224,-187500.0224,-172393.8417,-184379.8082,-179756.7969,-187500.0224,-187500.0224,0.34,-0.07,0.922,192,0,0,0,0,0,0,0,0,0,0
 2023-06-27 18:20:50.257,-187500.0224,-187500.0224,-187500.0224,-171649.0816,-183193.0424,-178393.3182,-187500.0224,-187500.0224,0.34,-0.07,0.922,192,0,0,0,0,0,0,0,0,0,0
 2023-06-27 18:20:50.257,-187500.0224,-187500.0224,-187500.0224,-171635.2906,-183312.3783,-178377.4037,-187500.0224,-187500.0224,0.34,-0.07,0.922,192,0,0,0,0,0,0,0,0,0,0
 2023-06-27 18:20:50.257,-187500.0224,-187500.0224,-187500.0224,-172385.6833,-184610.7465,-179764.3742,-187500.0224,-187500.0224,0.34,-0.07,0.922,192,0,0,0,0,0,0,0,0,0,0
 2023-06-27 18:20:50.257,-187500.0224,-187500.0224,-187500.0224,-172816.5132,-185204.6323,-180544.6289,-187500.0224,-187500.0224,0.34,-0.07,0.922,192,0,0,0,0,0,0,0,0,0,0
 2023-06-27 18:20:50.257,-187500.0224,-187500.0224,-187500.0224,-172399.5414,-184394.3369,-179767.5705,-187500.0224,-187500.0224,0.338,-0.07,0.924,192,10,144,253,208,28,224,0,0,0,0
 2023-06-27 18:20:50.257,-187500.0224,-187500.0224,-187500.0224,-171651.7862,-183199.8596,-178398.4144,-187500.0224,-187500.0224,0.338,-0.07,0.924,192,0,0,0,0,0,0,0,0,0,0
 2023-06-27 18:20:50.257,-187500.0224,-187500.0224,-187500.0224,-171627.8922,-183301.3366,-178363.2774,-187500.0224,-187500.0224,0.338,-0.07,0.924,192,0,0,0,0,0,0,0,0,0,0
 2023-06-27 18:20:50.257,-187500.0224,-187500.0224,-187500.0224,-172373.4793,-184593.9156,-179742.2683,-187500.0224,-187500.0224,0.338,-0.07,0.924,192,0,0,0,0,0,0,0,0,0,0
 2023-06-27 18:20:50.257,-187500.0224,-187500.0224,-187500.0224,-172813.3393,-185202.9336,-180538.1022,-187500.0224,-187500.0224,0.338,-0.07,0.924,192,0,0,0,0,0,0,0,0,0,0
 2023-06-27 18:20:50.257,-187500.0224,-187500.0224,-187500.0224,-172406.9622,-184411.1454,-179782.4567,-187500.0224,-187500.0224,0.338,-0.07,0.924,192,0,0,0,0,0,0,0,0,0,0
 2023-06-27 18:20:50.257,-187500.0224,-187500.0224,-187500.0224,-171656.3906,-183209.5379,-178408.3832,-187500.0224,-187500.0224,0.338,-0.07,0.924,192,0,0,0,0,0,0,0,0,0,0
 2023-06-27 18:20:50.257,-187500.0224,-187500.0224,-187500.0224,-171620.6502,-183289.7584,-178350.604,-187500.0224,-187500.0224,0.338,-0.07,0.924,192,0,0,0,0,0,0,0,0,0,0
 2023-06-27 18:20:50.257,-187500.0224,-187500.0224,-187500.0224,-172359.2189,-184571.765,-179715.5133,-187500.0224,-187500.0224,0.338,-0.07,0.924,192,0,0,0,0,0,0,0,0,0,0
 2023-06-27 18:20:50.257,-187500.0224,-187500.0224,-187500.0224,-172809.3607,-185200.4302,-180531.3519,-187500.0224,-187500.0224,0.338,-0.07,0.924,192,0,0,0,0,0,0,0,0,0,0
 2023-06-27 18:20:50.257,-187500.0224,-187500.0224,-187500.0224,-172417.3111,-184431.2619,-179801.5898,-187500.0224,-187500.0224,0.342,-0.068,0.926,192,10,176,253,224,28,240,0,0,0,0
 2023-06-27 18:20:50.257,-187500.0224,-187500.0224,-187500.0224,-171666.136,-183225.2736,-178425.2365,-187500.0224,-187500.0224,0.342,-0.068,0.926,192,0,0,0,0,0,0,0,0,0,0
 2023-06-27 18:20:50.257,-187500.0224,-187500.0224,-187500.0224,-171617.7892,-183284.461,-178345.2172,-187500.0224,-187500.0224,0.342,-0.068,0.926,192,0,0,0,0,0,0,0,0,0,0
 2023-06-27 18:20:50.257,-187500.0224,-187500.0224,-187500.0224,-172347.9536,-184555.4706,-179696.4472,-187500.0224,-187500.0224,0.342,-0.068,0.926,192,0,0,0,0,0,0,0,0,0,0
 2023-06-27 18:20:50.257,-187500.0224,-187500.0224,-187500.0224,-172806.902,-185200.9666,-180529.6755,-187500.0224,-187500.0224,0.342,-0.068,0.926,192,0,0,0,0,0,0,0,0,0,0
 2023-06-27 18:20:50.257,-187500.0224,-187500.0224,-187500.0224,-172429.6492,-184455.223,-179827.2496,-187500.0224,-187500.0224,0.342,-0.068,0.926,192,0,0,0,0,0,0,0,0,0,0
 2023-06-27 18:20:50.257,-187500.0224,-187500.0224,-187500.0224,-171675.6355,-183242.1044,-178446.9624,-187500.0224,-187500.0224,0.342,-0.068,0.926,192,0,0,0,0,0,0,0,0,0,0
 2023-06-27 18:20:50.257,-187500.0224,-187500.0224,-187500.0224,-171614.794,-183279.2977,-178343.809,-187500.0224,-187500.0224,0.342,-0.068,0.926,192,0,0,0,0,0,0,0,0,0,0
 2023-06-27 18:20:50.257,-187500.0224,-187500.0224,-187500.0224,-172339.8176,-184542.3501,-179683.9079,-187500.0224,-187500.0224,0.342,-0.068,0.926,192,0,0,0,0,0,0,0,0,0,0
 2023-06-27 18:20:50.257,-187500.0224,-187500.0224,-187500.0224,-172810.143,-185207.6721,-180537.8786,-187500.0224,-187500.0224,0.342,-0.068,0.926,192,0,0,0,0,0,0,0,0,0,0
 2023-06-27 18:20:50.257,-187500.0224,-187500.0224,-187500.0224,-172445.3402,-184481.4416,-179858.3409,-187500.0224,-187500.0224,0.344,-0.07,0.928,192,10,192,253,208,29,0,0,0,0,0
 2023-06-27 18:20:50.257,-187500.0224,-187500.0224,-187500.0224,-171688.8677,-183261.4611,-178473.4715,-187500.0224,-187500.0224,0.344,-0.07,0.928,192,0,0,0,0,0,0,0,0,0,0
 2023-06-27 18:20:50.257,-187500.0224,-187500.0224,-187500.0224,-171619.8008,-183282.7846,-178353.3532,-187500.0224,-187500.0224,0.344,-0.07,0.928,192,0,0,0,0,0,0,0,0,0,0
 2023-06-27 18:20:50.257,-187500.0224,-187500.0224,-187500.0224,-172336.9118,-184535.0187,-179680.3763,-187500.0224,-187500.0224,0.344,-0.07,0.928,192,0,0,0,0,0,0,0,0,0,0
 2023-06-27 18:20:50.257,-187500.0224,-187500.0224,-187500.0224,-172810.7465,-185209.5944,-180543.4219,-187500.0224,-187500.0224,0.344,-0.07,0.928,192,0,0,0,0,0,0,0,0,0,0
 2023-06-27 18:20:50.257,-187500.0224,-187500.0224,-187500.0224,-172458.1253,-184502.2287,-179885.543,-187500.0224,-187500.0224,0.344,-0.07,0.928,192,0,0,0,0,0,0,0,0,0,0
 2023-06-27 18:20:50.257,-187500.0224,-187500.0224,-187500.0224,-171704.6033,-183281.9352,-178502.5958,-187500.0224,-187500.0224,0.344,-0.07,0.928,192,0,0,0,0,0,0,0,0,0,0
 2023-06-27 18:20:50.257,-187500.0224,-187500.0224,-187500.0224,-171624.0924,-183282.9858,-178360.707,-187500.0224,-187500.0224,0.344,-0.07,0.928,192,0,0,0,0,0,0,0,0,0,0
 2023-06-27 18:20:50.257,-187500.0224,-187500.0224,-187500.0224,-172332.3744,-184523.0382,-179672.0838,-187500.0224,-187500.0224,0.344,-0.07,0.928,192,0,0,0,0,0,0,0,0,0,0
 2023-06-27 18:20:50.257,-187500.0224,-187500.0224,-187500.0224,-172818.5249,-185217.7528,-180555.2906,-187500.0224,-187500.0224,0.344,-0.07,0.928,192,0,0,0,0,0,0,0,0,0,0
 2023-06-27 18:20:50.257,-187500.0224,-187500.0224,-187500.0224,-172477.5714,-184528.0003,-179917.573,-187500.0224,-187500.0224,0.342,-0.068,0.926,192,10,176,253,224,28,240,0,0,0,0
 2023-06-27 18:20:50.257,-187500.0224,-187500.0224,-187500.0224,-171720.4284,-183299.6378,-178527.6074,-187500.0224,-187500.0224,0.342,-0.068,0.926,192,0,0,0,0,0,0,0,0,0,0
 2023-06-27 18:20:50.257,-187500.0224,-187500.0224,-187500.0224,-171627.1769,-183280.3706,-178363.3668,-187500.0224,-187500.0224,0.342,-0.068,0.926,192,0,0,0,0,0,0,0,0,0,0
 2023-06-27 18:20:50.257,-187500.0224,-187500.0224,-187500.0224,-172329.0664,-184510.4318,-179660.9974,-187500.0224,-187500.0224,0.342,-0.068,0.926,192,0,0,0,0,0,0,0,0,0,0
 2023-06-27 18:20:50.257,-187500.0224,-187500.0224,-187500.0224,-172822.727,-185220.435,-180559.001,-187500.0224,-187500.0224,0.342,-0.068,0.926,192,0,0,0,0,0,0,0,0,0,0
 2023-06-27 18:20:50.257,-187500.0224,-187500.0224,-187500.0224,-172489.5072,-184546.1499,-179939.0307,-187500.0224,-187500.0224,0.342,-0.068,0.926,192,0,0,0,0,0,0,0,0,0,0
 2023-06-27 18:20:50.257,-187500.0224,-187500.0224,-187500.0224,-171726.4633,-183306.3657,-178538.7386,-187500.0224,-187500.0224,0.342,-0.068,0.926,192,0,0,0,0,0,0,0,0,0,0
 2023-06-27 18:20:50.257,-187500.0224,-187500.0224,-187500.0224,-171619.5326,-183265.462,-178350.2911,-187500.0224,-187500.0224,0.342,-0.068,0.926,192,0,0,0,0,0,0,0,0,0,0
 2023-06-27 18:20:50.257,-187500.0224,-187500.0224,-187500.0224,-172312.5037,-184485.5767,-179634.6893,-187500.0224,-187500.0224,0.342,-0.068,0.926,192,0,0,0,0,0,0,0,0,0,0
 2023-06-27 18:20:50.257,-187500.0224,-187500.0224,-187500.0224,-172816.4015,-185213.6848,-180551.1109,-187500.0224,-187500.0224,0.342,-0.068,0.926,192,0,0,0,0,0,0,0,0,0,0
 2023-06-27 18:20:50.257,-187500.0224,-187500.0224,-187500.0224,-172499.5431,-184562.7126,-179957.225,-187500.0224,-187500.0224,0.34,-0.066,0.924,192,10,160,253,240,28,224,0,0,0,0
 2023-06-27 18:20:50.257,-187500.0224,-187500.0224,-187500.0224,-171733.75,-183316.1334,-178551.7697,-187500.0224,-187500.0224,0.34,-0.066,0.924,192,0,0,0,0,0,0,0,0,0,0
 2023-06-27 18:20:50.257,-187500.0224,-187500.0224,-187500.0224,-171613.2518,-183252.8556,-178338.7129,-187500.0224,-187500.0224,0.34,-0.066,0.924,192,0,0,0,0,0,0,0,0,0,0
 2023-06-27 18:20:50.257,-187500.0224,-187500.0224,-187500.0224,-172301.5961,-184466.1083,-179612.7399,-187500.0224,-187500.0224,0.34,-0.066,0.924,192,0,0,0,0,0,0,0,0,0,0
 2023-06-27 18:20:50.257,-187500.0224,-187500.0224,-187500.0224,-172814.3898,-185211.6731,-180546.5958,-187500.0224,-187500.0224,0.34,-0.066,0.924,192,0,0,0,0,0,0,0,0,0,0
 2023-06-27 18:20:50.257,-187500.0224,-187500.0224,-187500.0224,-172505.2428,-184575.3636,-179970.3902,-187500.0224,-187500.0224,0.34,-0.066,0.924,192,0,0,0,0,0,0,0,0,0,0
 2023-06-27 18:20:50.257,-187500.0224,-187500.0224,-187500.0224,-171737.1698,-183322.6601,-178560.8668,-187500.0224,-187500.0224,0.34,-0.066,0.924,192,0,0,0,0,0,0,0,0,0,0
 2023-06-27 18:20:50.257,-187500.0224,-187500.0224,-187500.0224,-171608.1332,-183243.0432,-178329.8392,-187500.0224,-187500.0224,0.34,-0.066,0.924,192,0,0,0,0,0,0,0,0,0,0
 2023-06-27 18:20:50.257,-187500.0224,-187500.0224,-187500.0224,-172289.5261,-184447.0199,-179591.4834,-187500.0224,-187500.0224,0.34,-0.066,0.924,192,0,0,0,0,0,0,0,0,0,0
 2023-06-27 18:20:50.257,-187500.0224,-187500.0224,-187500.0224,-172813.4287,-185212.366,-180545.5453,-187500.0224,-187500.0224,0.34,-0.066,0.924,192,0,0,0,0,0,0,0,0,0,0
 2023-06-27 18:20:50.257,-187500.0224,-187500.0224,-187500.0224,-172515.7034,-184594.2956,-179990.5738,-187500.0224,-187500.0224,0.338,-0.064,0.922,192,10,144,254,0,28,208,0,0,0,0
 2023-06-27 18:20:50.257,-187500.0224,-187500.0224,-187500.0224,-171744.6577,-183334.3501,-178575.999,-187500.0224,-187500.0224,0.338,-0.064,0.922,192,0,0,0,0,0,0,0,0,0,0
 2023-06-27 18:20:50.257,-187500.0224,-187500.0224,-187500.0224,-171603.1935,-183234.0578,-178322.6419,-187500.0224,-187500.0224,0.338,-0.064,0.922,192,0,0,0,0,0,0,0,0,0,0
 2023-06-27 18:20:50.257,-187500.0224,-187500.0224,-187500.0224,-172277.6127,-184427.9986,-179571.0316,-187500.0224,-187500.0224,0.338,-0.064,0.922,192,0,0,0,0,0,0,0,0,0,0
 2023-06-27 18:20:50.257,-187500.0224,-187500.0224,-187500.0224,-172810.4112,-185210.2202,-180542.4831,-187500.0224,-187500.0224,0.338,-0.064,0.922,192,0,0,0,0,0,0,0,0,0,0
 2023-06-27 18:20:50.257,-187500.0224,-187500.0224,-187500.0224,-172524.3983,-184611.2382,-180009.7069,-187500.0224,-187500.0224,0.338,-0.064,0.922,192,0,0,0,0,0,0,0,0,0,0
 2023-06-27 18:20:50.257,-187500.0224,-187500.0224,-187500.0224,-171753.3972,-183347.8282,-178593.8357,-187500.0224,-187500.0224,0.338,-0.064,0.922,192,0,0,0,0,0,0,0,0,0,0
 2023-06-27 18:20:50.257,-187500.0224,-187500.0224,-187500.0224,-171600.0419,-183226.8829,-178318.2834,-187500.0224,-187500.0224,0.338,-0.064,0.922,192,0,0,0,0,0,0,0,0,0,0
 2023-06-27 18:20:50.257,-187500.0224,-187500.0224,-187500.0224,-172264.5816,-184406.6527,-179548.9034,-187500.0224,-187500.0224,0.338,-0.064,0.922,192,0,0,0,0,0,0,0,0,0,0
 2023-06-27 18:20:50.257,-187500.0224,-187500.0224,-187500.0224,-172807.8407,-185207.9627,-180539.175,-187500.0224,-187500.0224,0.338,-0.064,0.922,192,0,0,0,0,0,0,0,0,0,0
 2023-06-27 18:20:50.257,-187500.0224,-187500.0224,-187500.0224,-172535.1942,-184629.3878,-180029.5329,-187500.0224,-187500.0224,0.338,-0.062,0.924,192,10,144,254,16,28,224,0,0,0,0
 2023-06-27 18:20:50.257,-187500.0224,-187500.0224,-187500.0224,-171762.7849,-183361.3286,-178611.3147,-187500.0224,-187500.0224,0.338,-0.062,0.924,192,0,0,0,0,0,0,0,0,0,0
 2023-06-27 18:20:50.257,-187500.0224,-187500.0224,-187500.0224,-171598.1643,-183220.4009,-178314.1036,-187500.0224,-187500.0224,0.338,-0.062,0.924,192,0,0,0,0,0,0,0,0,0,0
 2023-06-27 18:20:50.735,-187500.0224,-187500.0224,-187500.0224,-172254.4786,-184388.3466,-179529.1221,-187500.0224,-187500.0224,0.338,-0.062,0.924,192,0,0,0,0,0,0,0,0,0,0
 2023-06-27 18:20:50.735,-187500.0224,-187500.0224,-187500.0224,-172808.0196,-185208.7003,-180538.5045,-187500.0224,-187500.0224,0.338,-0.062,0.924,192,0,0,0,0,0,0,0,0,0,0
 2023-06-27 18:20:50.735,-187500.0224,-187500.0224,-187500.0224,-172547.3535,-184649.6832,-180051.6835,-187500.0224,-187500.0224,0.338,-0.062,0.924,192,0,0,0,0,0,0,0,0,0,0
 2023-06-27 18:20:50.735,-187500.0224,-187500.0224,-187500.0224,-171773.0667,-183375.8573,-178630.0008,-187500.0224,-187500.0224,0.338,-0.062,0.924,192,0,0,0,0,0,0,0,0,0,0
 2023-06-27 18:20:50.735,-187500.0224,-187500.0224,-187500.0224,-171595.9515,-183213.6507,-178309.6779,-187500.0224,-187500.0224,0.338,-0.062,0.924,192,0,0,0,0,0,0,0,0,0,0
 2023-06-27 18:20:50.735,-187500.0224,-187500.0224,-187500.0224,-172243.7945,-184368.99,-179508.4467,-187500.0224,-187500.0224,0.338,-0.062,0.924,192,0,0,0,0,0,0,0,0,0,0
 2023-06-27 18:20:50.735,-187500.0224,-187500.0224,-187500.0224,-172804.6891,-185205.3699,-180533.833,-187500.0224,-187500.0224,0.338,-0.062,0.924,192,0,0,0,0,0,0,0,0,0,0
 2023-06-27 18:20:50.735,-187500.0224,-187500.0224,-187500.0224,-172556.9424,-184666.894,-180070.4813,-187500.0224,-187500.0224,0.34,-0.064,0.924,192,10,160,254,0,28,224,0,0,0,0
 2023-06-27 18:20:50.735,-187500.0224,-187500.0224,-187500.0224,-171782.7674,-183390.2518,-178648.4857,-187500.0224,-187500.0224,0.34,-0.064,0.924,192,0,0,0,0,0,0,0,0,0,0
 2023-06-27 18:20:50.735,-187500.0224,-187500.0224,-187500.0224,-171588.9331,-183202.6089,-178301.1843,-187500.0224,-187500.0224,0.34,-0.064,0.924,192,0,0,0,0,0,0,0,0,0,0
 2023-06-27 18:20:50.736,-187500.0224,-187500.0224,-187500.0224,-172225.5107,-184342.6373,-179481.267,-187500.0224,-187500.0224,0.34,-0.064,0.924,192,0,0,0,0,0,0,0,0,0,0
 2023-06-27 18:20:50.736,-187500.0224,-187500.0224,-187500.0224,-172801.8952,-185203.2912,-180530.7931,-187500.0224,-187500.0224,0.34,-0.064,0.924,192,0,0,0,0,0,0,0,0,0,0
 2023-06-27 18:20:50.736,-187500.0224,-187500.0224,-187500.0224,-172569.4147,-184688.1953,-180094.0848,-187500.0224,-187500.0224,0.34,-0.064,0.924,192,0,0,0,0,0,0,0,0,0,0
 2023-06-27 18:20:50.736,-187500.0224,-187500.0224,-187500.0224,-171793.5186,-183407.5073,-178670.9715,-187500.0224,-187500.0224,0.34,-0.064,0.924,192,0,0,0,0,0,0,0,0,0,0
 2023-06-27 18:20:50.736,-187500.0224,-187500.0224,-187500.0224,-171591.4365,-183202.363,-178305.2299,-187500.0224,-187500.0224,0.34,-0.064,0.924,192,0,0,0,0,0,0,0,0,0,0
 2023-06-27 18:20:50.736,-187500.0224,-187500.0224,-187500.0224,-172219.0734,-184326.924,-179465.7996,-187500.0224,-187500.0224,0.34,-0.064,0.924,192,0,0,0,0,0,0,0,0,0,0
 2023-06-27 18:20:50.736,-187500.0224,-187500.0224,-187500.0224,-172801.7611,-185202.3077,-180529.2956,-187500.0224,-187500.0224,0.34,-0.064,0.924,192,0,0,0,0,0,0,0,0,0,0
 2023-06-27 18:20:50.736,-187500.0224,-187500.0224,-187500.0224,-172581.6411,-184707.9542,-180115.9895,-187500.0224,-187500.0224,0.336,-0.062,0.922,192,10,128,254,16,28,208,0,0,0,0
 2023-06-27 18:20:50.736,-187500.0224,-187500.0224,-187500.0224,-171810.3047,-183430.3285,-178698.71,-187500.0224,-187500.0224,0.336,-0.062,0.922,192,0,0,0,0,0,0,0,0,0,0
 2023-06-27 18:20:50.736,-187500.0224,-187500.0224,-187500.0224,-171594.2081,-183202.5419,-178309.3203,-187500.0224,-187500.0224,0.336,-0.062,0.922,192,0,0,0,0,0,0,0,0,0,0
 2023-06-27 18:20:50.736,-187500.0224,-187500.0224,-187500.0224,-172207.8752,-184307.3662,-179446.7782,-187500.0224,-187500.0224,0.336,-0.062,0.922,192,0,0,0,0,0,0,0,0,0,0
 2023-06-27 18:20:50.736,-187500.0224,-187500.0224,-187500.0224,-172798.2295,-185198.4856,-180525.4064,-187500.0224,-187500.0224,0.336,-0.062,0.922,192,0,0,0,0,0,0,0,0,0,0
 2023-06-27 18:20:50.736,-187500.0224,-187500.0224,-187500.0224,-172589.9559,-184724.1369,-180134.8767,-187500.0224,-187500.0224,0.336,-0.062,0.922,192,0,0,0,0,0,0,0,0,0,0
 2023-06-27 18:20:50.736,-187500.0224,-187500.0224,-187500.0224,-171816.4515,-183441.8396,-178715.6974,-187500.0224,-187500.0224,0.336,-0.062,0.922,192,0,0,0,0,0,0,0,0,0,0
