 Timestamp (Formatted), EXG Channel 0, EXG Channel 1, EXG Channel 2, EXG Channel 3, EXG Channel 4, EXG Channel 5, EXG Channel 6, EXG Channel 7, Accel Channel 0, Accel Channel 1, Accel Channel 2, Other, Other.1, Other.2, Other.3, Other.4, Other.5, Other.6, Analog Channel 0, Analog Channel 1, Analog Channel 2, Other.7
 2023-06-27 18:19:01.373,-187500.0224,-187500.0224,-187500.0224,-176603.4352,-187500.0224,-182499.6242,-187500.0224,-187500.0224,0.34,-0.066,0.922,192,0,0,0,0,0,0,0,0,0,0
 2023-06-27 18:19:01.373,-187500.0224,-187500.0224,-187500.0224,-175816.6761,-186193.9652,-181059.4566,-187500.0224,-187500.0224,0.34,-0.066,0.922,192,0,0,0,0,0,0,0,0,0,0
 2023-06-27 18:19:01.373,-187500.0224,-187500.0224,-187500.0224,-175513.7429,-185824.6026,-180514.454,-187500.0224,-187500.0224,0.34,-0.066,0.922,192,0,0,0,0,0,0,0,0,0,0
 2023-06-27 18:19:01.374,-187500.0224,-187500.0224,-187500.0224,-176077.141,-186857.7673,-181556.09,-187500.0224,-187500.0224,0.34,-0.066,0.922,192,0,0,0,0,0,0,0,0,0,0
 2023-06-27 18:19:01.374,-187500.0224,-187500.0224,-187500.0224,-176737.7245,-187500.0224,-182755.3281,-187500.0224,-187500.0224,0.34,-0.066,0.922,192,0,0,0,0,0,0,0,0,0,0
 2023-06-27 18:19:01.374,-187500.0224,-187500.0224,-187500.0224,-176608.3302,-187500.0224,-182506.5532,-187500.0224,-187500.0224,0.34,-0.066,0.922,192,0,0,0,0,0,0,0,0,0,0
 2023-06-27 18:19:01.374,-187500.0224,-187500.0224,-187500.0224,-175825.7509,-186208.5162,-181072.3312,-187500.0224,-187500.0224,0.34,-0.066,0.922,192,0,0,0,0,0,0,0,0,0,0
 2023-06-27 18:19:01.374,-187500.0224,-187500.0224,-187500.0224,-175510.3231,-185819.1712,-180506.5862,-187500.0224,-187500.0224,0.34,-0.066,0.922,192,0,0,0,0,0,0,0,0,0,0
 2023-06-27 18:19:01.374,-187500.0224,-187500.0224,-187500.0224,-176064.9146,-186839.3718,-181532.3301,-187500.0224,-187500.0224,0.34,-0.066,0.922,192,0,0,0,0,0,0,0,0,0,0
 2023-06-27 18:19:01.374,-187500.0224,-187500.0224,-187500.0224,-176735.1316,-187500.0224,-182747.3262,-187500.0224,-187500.0224,0.338,-0.064,0.922,192,10,144,254,0,28,208,0,0,0,0
 2023-06-27 18:19:01.374,-187500.0224,-187500.0224,-187500.0224,-176612.3535,-187500.0224,-182514.0187,-187500.0224,-187500.0224,0.338,-0.064,0.922,192,0,0,0,0,0,0,0,0,0,0
 2023-06-27 18:19:01.374,-187500.0224,-187500.0224,-187500.0224,-175827.5838,-186215.3782,-181077.8297,-187500.0224,-187500.0224,0.338,-0.064,0.922,192,0,0,0,0,0,0,0,0,0,0
 2023-06-27 18:19:01.374,-187500.0224,-187500.0224,-187500.0224,-175506.5233,-185813.248,-180498.0925,-187500.0224,-187500.0224,0.338,-0.064,0.922,192,0,0,0,0,0,0,0,0,0,0
 2023-06-27 18:19:01.374,-187500.0224,-187500.0224,-187500.0224,-176052.04,-186819.3223,-181506.8268,-187500.0224,-187500.0224,0.338,-0.064,0.922,192,0,0,0,0,0,0,0,0,0,0
 2023-06-27 18:19:01.374,-187500.0224,-187500.0224,-187500.0224,-176724.8946,-187500.0224,-182730.1377,-187500.0224,-187500.0224,0.338,-0.064,0.922,192,0,0,0,0,0,0,0,0,0,0
 2023-06-27 18:19:01.374,-187500.0224,-187500.0224,-187500.0224,-176613.0017,-187500.0224,-182516.5445,-187500.0224,-187500.0224,0.338,-0.064,0.922,192,0,0,0,0,0,0,0,0,0,0
 2023-06-27 18:19:01.374,-187500.0224,-187500.0224,-187500.0224,-175829.5954,-186221.9496,-181082.2107,-187500.0224,-187500.0224,0.338,-0.064,0.922,192,0,0,0,0,0,0,0,0,0,0
 2023-06-27 18:19:01.374,-187500.0224,-187500.0224,-187500.0224,-175497.9849,-185802.4744,-180483.7874,-187500.0224,-187500.0224,0.338,-0.064,0.922,192,0,0,0,0,0,0,0,0,0,0
 2023-06-27 18:19:01.374,-187500.0224,-187500.0224,-187500.0224,-176035.2091,-186795.6295,-181476.5178,-187500.0224,-187500.0224,0.338,-0.064,0.922,192,0,0,0,0,0,0,0,0,0,0
 2023-06-27 18:19:01.374,-187500.0224,-187500.0224,-187500.0224,-176717.0938,-187500.0224,-182715.095,-187500.0224,-187500.0224,0.34,-0.068,0.93,192,10,160,253,224,29,16,0,0,0,0
 2023-06-27 18:19:01.374,-187500.0224,-187500.0224,-187500.0224,-176613.7617,-187500.0224,-182515.9857,-187500.0224,-187500.0224,0.34,-0.068,0.93,192,0,0,0,0,0,0,0,0,0,0
 2023-06-27 18:19:01.374,-187500.0224,-187500.0224,-187500.0224,-175826.6226,-186217.3451,-181072.6218,-187500.0224,-187500.0224,0.34,-0.068,0.93,192,0,0,0,0,0,0,0,0,0,0
 2023-06-27 18:19:01.374,-187500.0224,-187500.0224,-187500.0224,-175479.3212,-185774.0653,-180446.5941,-187500.0224,-187500.0224,0.34,-0.068,0.93,192,0,0,0,0,0,0,0,0,0,0
 2023-06-27 18:19:01.374,-187500.0224,-187500.0224,-187500.0224,-176010.8234,-186762.303,-181430.4956,-187500.0224,-187500.0224,0.34,-0.068,0.93,192,0,0,0,0,0,0,0,0,0,0
 2023-06-27 18:19:01.374,-187500.0224,-187500.0224,-187500.0224,-176704.9121,-187500.0224,-182691.7821,-187500.0224,-187500.0224,0.34,-0.068,0.93,192,0,0,0,0,0,0,0,0,0,0
 2023-06-27 18:19:01.374,-187500.0224,-187500.0224,-187500.0224,-176614.7452,-187500.0224,-182517.5503,-187500.0224,-187500.0224,0.34,-0.068,0.93,192,0,0,0,0,0,0,0,0,0,0
 2023-06-27 18:19:01.374,-187500.0224,-187500.0224,-187500.0224,-175832.1882,-186233.9972,-181084.647,-187500.0224,-187500.0224,0.34,-0.068,0.93,192,0,0,0,0,0,0,0,0,0,0
 2023-06-27 18:19:01.374,-187500.0224,-187500.0224,-187500.0224,-175475.365,-185771.9419,-180440.5815,-187500.0224,-187500.0224,0.34,-0.068,0.93,192,0,0,0,0,0,0,0,0,0,0
 2023-06-27 18:19:01.374,-187500.0224,-187500.0224,-187500.0224,-175994.9313,-186739.9736,-181401.036,-187500.0224,-187500.0224,0.34,-0.068,0.93,192,0,0,0,0,0,0,0,0,0,0
 2023-06-27 18:19:01.374,-187500.0224,-187500.0224,-187500.0224,-176690.6964,-187500.0224,-182667.3517,-187500.0224,-187500.0224,0.336,-0.068,0.924,192,10,128,253,224,28,224,0,0,0,0
 2023-06-27 18:19:01.374,-187500.0224,-187500.0224,-187500.0224,-176615.0804,-187500.0224,-182517.5279,-187500.0224,-187500.0224,0.336,-0.068,0.924,192,0,0,0,0,0,0,0,0,0,0
 2023-06-27 18:19:01.374,-187500.0224,-187500.0224,-187500.0224,-175840.1231,-186250.0905,-181097.3875,-187500.0224,-187500.0224,0.336,-0.068,0.924,192,0,0,0,0,0,0,0,0,0,0
 2023-06-27 18:19:01.374,-187500.0224,-187500.0224,-187500.0224,-175472.4145,-185770.3997,-180435.7982,-187500.0224,-187500.0224,0.336,-0.068,0.924,192,0,0,0,0,0,0,0,0,0,0
 2023-06-27 18:19:01.374,-187500.0224,-187500.0224,-187500.0224,-175979.598,-186718.7842,-181374.0574,-187500.0224,-187500.0224,0.336,-0.068,0.924,192,0,0,0,0,0,0,0,0,0,0
 2023-06-27 18:19:01.374,-187500.0224,-187500.0224,-187500.0224,-176680.951,-187500.0224,-182650.9455,-187500.0224,-187500.0224,0.336,-0.068,0.924,192,0,0,0,0,0,0,0,0,0,0
 2023-06-27 18:19:01.374,-187500.0224,-187500.0224,-187500.0224,-176615.2369,-187500.0224,-182519.8078,-187500.0224,-187500.0224,0.336,-0.068,0.924,192,0,0,0,0,0,0,0,0,0,0
 2023-06-27 18:19:01.374,-187500.0224,-187500.0224,-187500.0224,-175844.3476,-186261.4675,-181106.8646,-187500.0224,-187500.0224,0.336,-0.068,0.924,192,0,0,0,0,0,0,0,0,0,0
 2023-06-27 18:19:01.374,-187500.0224,-187500.0224,-187500.0224,-175471.297,-185768.9692,-180431.909,-187500.0224,-187500.0224,0.336,-0.068,0.924,192,0,0,0,0,0,0,0,0,0,0
 2023-06-27 18:19:01.374,-187500.0224,-187500.0224,-187500.0224,-175967.0363,-186699.5617,-181349.247,-187500.0224,-187500.0224,0.336,-0.068,0.924,192,0,0,0,0,0,0,0,0,0,0
 2023-06-27 18:19:01.374,-187500.0224,-187500.0224,-187500.0224,-176675.0278,-187500.0224,-182638.2944,-187500.0224,-187500.0224,0.34,-0.07,0.922,192,10,160,253,208,28,208,0,0,0,0
 2023-06-27 18:19:01.374,-187500.0224,-187500.0224,-187500.0224,-176622.4118,-187500.0224,-182530.2461,-187500.0224,-187500.0224,0.34,-0.07,0.922,192,0,0,0,0,0,0,0,0,0,0
 2023-06-27 18:19:01.374,-187500.0224,-187500.0224,-187500.0224,-175855.3446,-186280.0865,-181124.3884,-187500.0224,-187500.0224,0.34,-0.07,0.922,192,0,0,0,0,0,0,0,0,0,0
 2023-06-27 18:19:01.374,-187500.0224,-187500.0224,-187500.0224,-175469.3524,-185767.0469,-180428.5563,-187500.0224,-187500.0224,0.34,-0.07,0.922,192,0,0,0,0,0,0,0,0,0,0
 2023-06-27 18:19:01.374,-187500.0224,-187500.0224,-187500.0224,-175950.7195,-186676.4053,-181321.5531,-187500.0224,-187500.0224,0.34,-0.07,0.922,192,0,0,0,0,0,0,0,0,0,0
 2023-06-27 18:19:01.374,-187500.0224,-187500.0224,-187500.0224,-176665.9306,-187500.0224,-182623.3411,-187500.0224,-187500.0224,0.34,-0.07,0.922,192,0,0,0,0,0,0,0,0,0,0
 2023-06-27 18:19:01.374,-187500.0224,-187500.0224,-187500.0224,-176624.8481,-187500.0224,-182536.5046,-187500.0224,-187500.0224,0.34,-0.07,0.922,192,0,0,0,0,0,0,0,0,0,0
 2023-06-27 18:19:01.374,-187500.0224,-187500.0224,-187500.0224,-175863.436,-186296.5821,-181141.0405,-187500.0224,-187500.0224,0.34,-0.07,0.922,192,0,0,0,0,0,0,0,0,0,0
 2023-06-27 18:19:01.374,-187500.0224,-187500.0224,-187500.0224,-175468.056,-185766.1752,-180427.9528,-187500.0224,-187500.0224,0.34,-0.07,0.922,192,0,0,0,0,0,0,0,0,0,0
 2023-06-27 18:19:01.374,-187500.0224,-187500.0224,-187500.0224,-175940.9518,-186659.9991,-181302.3083,-187500.0224,-187500.0224,0.34,-0.07,0.922,192,0,0,0,0,0,0,0,0,0,0
 2023-06-27 18:19:01.374,-187500.0224,-187500.0224,-187500.0224,-176661.6615,-187500.0224,-182613.9757,-187500.0224,-187500.0224,0.338,-0.072,0.918,192,10,144,253,192,28,176,0,0,0,0
 2023-06-27 18:19:01.374,-187500.0224,-187500.0224,-187500.0224,-176630.7267,-187500.0224,-182546.6746,-187500.0224,-187500.0224,0.338,-0.072,0.918,192,0,0,0,0,0,0,0,0,0,0
 2023-06-27 18:19:01.374,-187500.0224,-187500.0224,-187500.0224,-175874.3883,-186314.24,-181159.5701,-187500.0224,-187500.0224,0.338,-0.072,0.918,192,0,0,0,0,0,0,0,0,0,0
 2023-06-27 18:19:01.374,-187500.0224,-187500.0224,-187500.0224,-175469.6206,-185766.9351,-180428.7798,-187500.0224,-187500.0224,0.338,-0.072,0.918,192,0,0,0,0,0,0,0,0,0,0
 2023-06-27 18:19:01.374,-187500.0224,-187500.0224,-187500.0224,-175935.2074,-186650.2761,-181290.2831,-187500.0224,-187500.0224,0.338,-0.072,0.918,192,0,0,0,0,0,0,0,0,0,0
 2023-06-27 18:19:01.374,-187500.0224,-187500.0224,-187500.0224,-176657.884,-187500.0224,-182607.6949,-187500.0224,-187500.0224,0.338,-0.072,0.918,192,0,0,0,0,0,0,0,0,0,0
 2023-06-27 18:19:01.374,-187500.0224,-187500.0224,-187500.0224,-176635.9346,-187500.0224,-182556.5541,-187500.0224,-187500.0224,0.338,-0.072,0.918,192,0,0,0,0,0,0,0,0,0,0
 2023-06-27 18:19:01.374,-187500.0224,-187500.0224,-187500.0224,-175884.2454,-186329.3497,-181176.2221,-187500.0224,-187500.0224,0.338,-0.072,0.918,192,0,0,0,0,0,0,0,0,0,0
 2023-06-27 18:19:01.374,-187500.0224,-187500.0224,-187500.0224,-175468.3242,-185763.873,-180426.0976,-187500.0224,-187500.0224,0.338,-0.072,0.918,192,0,0,0,0,0,0,0,0,0,0
 2023-06-27 18:19:01.374,-187500.0224,-187500.0224,-187500.0224,-175923.2045,-186630.3383,-181267.5066,-187500.0224,-187500.0224,0.338,-0.072,0.918,192,0,0,0,0,0,0,0,0,0,0
 2023-06-27 18:19:01.374,-187500.0224,-187500.0224,-187500.0224,-176653.3466,-187500.0224,-182597.5695,-187500.0224,-187500.0224,0.342,-0.07,0.926,192,10,176,253,208,28,240,0,0,0,0
 2023-06-27 18:19:01.374,-187500.0224,-187500.0224,-187500.0224,-176644.6741,-187500.0224,-182569.451,-187500.0224,-187500.0224,0.342,-0.07,0.926,192,0,0,0,0,0,0,0,0,0,0
 2023-06-27 18:19:01.374,-187500.0224,-187500.0224,-187500.0224,-175896.7624,-186347.5441,-181195.0646,-187500.0224,-187500.0224,0.342,-0.07,0.926,192,0,0,0,0,0,0,0,0,0,0
 2023-06-27 18:19:01.374,-187500.0224,-187500.0224,-187500.0224,-175469.33,-185761.7048,-180423.2589,-187500.0224,-187500.0224,0.342,-0.07,0.926,192,0,0,0,0,0,0,0,0,0,0
 2023-06-27 18:19:01.374,-187500.0224,-187500.0224,-187500.0224,-175908.0948,-186604.7679,-181237.3988,-187500.0224,-187500.0224,0.342,-0.07,0.926,192,0,0,0,0,0,0,0,0,0,0
 2023-06-27 18:19:01.374,-187500.0224,-187500.0224,-187500.0224,-176643.6013,-187500.0224,-182578.2576,-187500.0224,-187500.0224,0.342,-0.07,0.926,192,0,0,0,0,0,0,0,0,0,0
 2023-06-27 18:19:01.374,-187500.0224,-187500.0224,-187500.0224,-176644.92,-187500.0224,-182569.7863,-187500.0224,-187500.0224,0.342,-0.07,0.926,192,0,0,0,0,0,0,0,0,0,0
 2023-06-27 18:19:01.374,-187500.0224,-187500.0224,-187500.0224,-175898.1482,-186354.406,-181199.8479,-187500.0224,-187500.0224,0.342,-0.07,0.926,192,0,0,0,0,0,0,0,0,0,0
 2023-06-27 18:19:01.374,-187500.0224,-187500.0224,-187500.0224,-175460.3446,-185751.2219,-180409.8031,-187500.0224,-187500.0224,0.342,-0.07,0.926,192,0,0,0,0,0,0,0,0,0,0
 2023-06-27 18:19:01.374,-187500.0224,-187500.0224,-187500.0224,-175891.9344,-186580.8739,-181207.3134,-187500.0224,-187500.0224,0.342,-0.07,0.926,192,0,0,0,0,0,0,0,0,0,0
 2023-06-27 18:19:01.374,-187500.0224,-187500.0224,-187500.0224,-176634.1912,-187500.0224,-182559.661,-187500.0224,-187500.0224,0.338,-0.072,0.924,192,10,144,253,192,28,224,0,0,0,0
 2023-06-27 18:19:01.374,-187500.0224,-187500.0224,-187500.0224,-176646.4623,-187500.0224,-182571.1945,-187500.0224,-187500.0224,0.338,-0.072,0.924,192,0,0,0,0,0,0,0,0,0,0
 2023-06-27 18:19:01.374,-187500.0224,-187500.0224,-187500.0224,-175903.4679,-186363.9726,-181206.3523,-187500.0224,-187500.0224,0.338,-0.072,0.924,192,0,0,0,0,0,0,0,0,0,0
 2023-06-27 18:19:01.374,-187500.0224,-187500.0224,-187500.0224,-175454.9802,-185741.4318,-180395.4086,-187500.0224,-187500.0224,0.338,-0.072,0.924,192,0,0,0,0,0,0,0,0,0,0
 2023-06-27 18:19:01.374,-187500.0224,-187500.0224,-187500.0224,-175875.2153,-186556.3764,-181174.8587,-187500.0224,-187500.0224,0.338,-0.072,0.924,192,0,0,0,0,0,0,0,0,0,0
 2023-06-27 18:19:01.374,-187500.0224,-187500.0224,-187500.0224,-176622.8588,-187500.0224,-182539.5891,-187500.0224,-187500.0224,0.338,-0.072,0.924,192,0,0,0,0,0,0,0,0,0,0
 2023-06-27 18:19:01.375,-187500.0224,-187500.0224,-187500.0224,-176650.0386,-187500.0224,-182575.7766,-187500.0224,-187500.0224,0.338,-0.072,0.924,192,0,0,0,0,0,0,0,0,0,0
 2023-06-27 18:19:01.375,-187500.0224,-187500.0224,-187500.0224,-175913.0568,-186381.474,-181221.1491,-187500.0224,-187500.0224,0.338,-0.072,0.924,192,0,0,0,0,0,0,0,0,0,0
 2023-06-27 18:19:01.375,-187500.0224,-187500.0224,-187500.0224,-175453.8179,-185740.6942,-180391.9217,-187500.0224,-187500.0224,0.338,-0.072,0.924,192,0,0,0,0,0,0,0,0,0,0
 2023-06-27 18:19:01.375,-187500.0224,-187500.0224,-187500.0224,-175861.3796,-186537.4668,-181150.7635,-187500.0224,-187500.0224,0.338,-0.072,0.924,192,0,0,0,0,0,0,0,0,0,0
 2023-06-27 18:19:01.375,-187500.0224,-187500.0224,-187500.0224,-176612.6888,-187500.0224,-182522.9818,-187500.0224,-187500.0224,0.344,-0.07,0.92,192,10,192,253,208,28,192,0,0,0,0
 2023-06-27 18:19:01.375,-187500.0224,-187500.0224,-187500.0224,-176652.162,-187500.0224,-182580.8728,-187500.0224,-187500.0224,0.344,-0.07,0.92,192,0,0,0,0,0,0,0,0,0,0
 2023-06-27 18:19:01.375,-187500.0224,-187500.0224,-187500.0224,-175916.5214,-186392.9181,-181231.945,-187500.0224,-187500.0224,0.344,-0.07,0.92,192,0,0,0,0,0,0,0,0,0,0
 2023-06-27 18:19:01.375,-187500.0224,-187500.0224,-187500.0224,-175445.5925,-185731.91,-180381.9082,-187500.0224,-187500.0224,0.344,-0.07,0.92,192,0,0,0,0,0,0,0,0,0,0
 2023-06-27 18:19:01.375,-187500.0224,-187500.0224,-187500.0224,-175845.9346,-186514.1093,-181122.9132,-187500.0224,-187500.0224,0.344,-0.07,0.92,192,0,0,0,0,0,0,0,0,0,0
 2023-06-27 18:19:01.375,-187500.0224,-187500.0224,-187500.0224,-176604.7539,-187500.0224,-182506.285,-187500.0224,-187500.0224,0.344,-0.07,0.92,192,0,0,0,0,0,0,0,0,0,0
 2023-06-27 18:19:01.375,-187500.0224,-187500.0224,-187500.0224,-176653.1455,-187500.0224,-182582.7727,-187500.0224,-187500.0224,0.344,-0.07,0.92,192,0,0,0,0,0,0,0,0,0,0
 2023-06-27 18:19:01.375,-187500.0224,-187500.0224,-187500.0224,-175927.9208,-186411.6265,-181249.1782,-187500.0224,-187500.0224,0.344,-0.07,0.92,192,0,0,0,0,0,0,0,0,0,0
 2023-06-27 18:19:01.375,-187500.0224,-187500.0224,-187500.0224,-175449.884,-185735.8439,-180384.0986,-187500.0224,-187500.0224,0.344,-0.07,0.92,192,0,0,0,0,0,0,0,0,0,0
 2023-06-27 18:19:01.375,-187500.0224,-187500.0224,-187500.0224,-175835.1387,-186496.9431,-181101.0979,-187500.0224,-187500.0224,0.344,-0.07,0.92,192,0,0,0,0,0,0,0,0,0,0
 2023-06-27 18:19:01.375,-187500.0224,-187500.0224,-187500.0224,-176595.7462,-187500.0224,-182490.7953,-187500.0224,-187500.0224,0.336,-0.068,0.916,192,10,128,253,224,28,160,0,0,0,0
 2023-06-27 18:19:01.375,-187500.0224,-187500.0224,-187500.0224,-176659.024,-187500.0224,-182592.4957,-187500.0224,-187500.0224,0.336,-0.068,0.916,192,0,0,0,0,0,0,0,0,0,0
 2023-06-27 18:19:01.375,-187500.0224,-187500.0224,-187500.0224,-175939.0072,-186431.4749,-181269.3618,-187500.0224,-187500.0224,0.336,-0.068,0.916,192,0,0,0,0,0,0,0,0,0,0
 2023-06-27 18:19:01.375,-187500.0224,-187500.0224,-187500.0224,-175449.6381,-185735.9556,-180384.4563,-187500.0224,-187500.0224,0.336,-0.068,0.916,192,0,0,0,0,0,0,0,0,0,0
 2023-06-27 18:19:01.375,-187500.0224,-187500.0224,-187500.0224,-175828.4778,-186483.5544,-181084.9823,-187500.0224,-187500.0224,0.336,-0.068,0.916,192,0,0,0,0,0,0,0,0,0,0
 2023-06-27 18:19:01.375,-187500.0224,-187500.0224,-187500.0224,-176592.2146,-187500.0224,-182481.4075,-187500.0224,-187500.0224,0.336,-0.068,0.916,192,0,0,0,0,0,0,0,0,0,0
 2023-06-27 18:19:01.375,-187500.0224,-187500.0224,-187500.0224,-176666.3777,-187500.0224,-182603.5598,-187500.0224,-187500.0224,0.336,-0.068,0.916,192,0,0,0,0,0,0,0,0,0,0
 2023-06-27 18:19:01.375,-187500.0224,-187500.0224,-187500.0224,-175951.6807,-186452.2173,-181290.8419,-187500.0224,-187500.0224,0.336,-0.068,0.916,192,0,0,0,0,0,0,0,0,0,0
 2023-06-27 18:19:01.375,-187500.0224,-187500.0224,-187500.0224,-175450.711,-185737.8779,-180387.0491,-187500.0224,-187500.0224,0.336,-0.068,0.916,192,0,0,0,0,0,0,0,0,0,0
 2023-06-27 18:19:01.375,-187500.0224,-187500.0224,-187500.0224,-175817.1008,-186466.7236,-181066.3409,-187500.0224,-187500.0224,0.336,-0.068,0.916,192,0,0,0,0,0,0,0,0,0,0
 2023-06-27 18:19:01.375,-187500.0224,-187500.0224,-187500.0224,-176586.7384,-187500.0224,-182472.288,-187500.0224,-187500.0224,0.344,-0.062,0.924,192,10,192,254,16,28,224,0,0,0,0
 2023-06-27 18:19:01.375,-187500.0224,-187500.0224,-187500.0224,-176671.2727,-187500.0224,-182615.1827,-187500.0224,-187500.0224,0.344,-0.062,0.924,192,0,0,0,0,0,0,0,0,0,0
 2023-06-27 18:19:01.375,-187500.0224,-187500.0224,-187500.0224,-175964.3541,-186474.8372,-181316.6134,-187500.0224,-187500.0224,0.344,-0.062,0.924,192,0,0,0,0,0,0,0,0,0,0
 2023-06-27 18:19:01.375,-187500.0224,-187500.0224,-187500.0224,-175457.3495,-185746.1704,-180398.672,-187500.0224,-187500.0224,0.344,-0.062,0.924,192,0,0,0,0,0,0,0,0,0,0
 2023-06-27 18:19:01.854,-187500.0224,-187500.0224,-187500.0224,-175812.3622,-186456.7994,-181057.0426,-187500.0224,-187500.0224,0.344,-0.062,0.924,192,0,0,0,0,0,0,0,0,0,0
 2023-06-27 18:19:01.854,-187500.0224,-187500.0224,-187500.0224,-176582.5586,-187500.0224,-182465.5154,-187500.0224,-187500.0224,0.344,-0.062,0.924,192,0,0,0,0,0,0,0,0,0,0
 2023-06-27 18:19:01.854,-187500.0224,-187500.0224,-187500.0224,-176677.1065,-187500.0224,-182627.275,-187500.0224,-187500.0224,0.344,-0.062,0.924,192,0,0,0,0,0,0,0,0,0,0
 2023-06-27 18:19:01.854,-187500.0224,-187500.0224,-187500.0224,-175980.4697,-186498.7983,-181344.7766,-187500.0224,-187500.0224,0.344,-0.062,0.924,192,0,0,0,0,0,0,0,0,0,0
 2023-06-27 18:19:01.854,-187500.0224,-187500.0224,-187500.0224,-175467.9889,-185757.011,-180413.4465,-187500.0224,-187500.0224,0.344,-0.062,0.924,192,0,0,0,0,0,0,0,0,0,0
 2023-06-27 18:19:01.854,-187500.0224,-187500.0224,-187500.0224,-175813.6586,-186452.3737,-181054.2039,-187500.0224,-187500.0224,0.344,-0.062,0.924,192,0,0,0,0,0,0,0,0,0,0
 2023-06-27 18:19:01.854,-187500.0224,-187500.0224,-187500.0224,-176584.9503,-187500.0224,-182466.3201,-187500.0224,-187500.0224,0.336,-0.068,0.924,192,10,128,253,224,28,224,0,0,0,0
 2023-06-27 18:19:01.854,-187500.0224,-187500.0224,-187500.0224,-176691.5681,-187500.0224,-182649.0456,-187500.0224,-187500.0224,0.336,-0.068,0.924,192,0,0,0,0,0,0,0,0,0,0
 2023-06-27 18:19:01.854,-187500.0224,-187500.0224,-187500.0224,-175999.3793,-186525.6875,-181376.9408,-187500.0224,-187500.0224,0.336,-0.068,0.924,192,0,0,0,0,0,0,0,0,0,0
 2023-06-27 18:19:01.854,-187500.0224,-187500.0224,-187500.0224,-175473.4651,-185762.3754,-180424.0859,-187500.0224,-187500.0224,0.336,-0.068,0.924,192,0,0,0,0,0,0,0,0,0,0
 2023-06-27 18:19:01.854,-187500.0224,-187500.0224,-187500.0224,-175805.8802,-186437.8228,-181042.0446,-187500.0224,-187500.0224,0.336,-0.068,0.924,192,0,0,0,0,0,0,0,0,0,0
 2023-06-27 18:19:01.854,-187500.0224,-187500.0224,-187500.0224,-176582.3575,-187500.0224,-182460.7545,-187500.0224,-187500.0224,0.336,-0.068,0.924,192,0,0,0,0,0,0,0,0,0,0
 2023-06-27 18:19:01.854,-187500.0224,-187500.0224,-187500.0224,-176699.123,-187500.0224,-182661.4508,-187500.0224,-187500.0224,0.336,-0.068,0.924,192,0,0,0,0,0,0,0,0,0,0
 2023-06-27 18:19:01.854,-187500.0224,-187500.0224,-187500.0224,-176011.628,-186544.1276,-181399.6501,-187500.0224,-187500.0224,0.336,-0.068,0.924,192,0,0,0,0,0,0,0,0,0,0
 2023-06-27 18:19:01.854,-187500.0224,-187500.0224,-187500.0224,-175476.3485,-185763.3589,-180429.0256,-187500.0224,-187500.0224,0.336,-0.068,0.924,192,0,0,0,0,0,0,0,0,0,0
 2023-06-27 18:19:01.854,-187500.0224,-187500.0224,-187500.0224,-175794.3914,-186415.851,-181020.3187,-187500.0224,-187500.0224,0.336,-0.068,0.924,192,0,0,0,0,0,0,0,0,0,0
 2023-06-27 18:19:01.854,-187500.0224,-187500.0224,-187500.0224,-176571.0698,-187500.0224,-182441.2414,-187500.0224,-187500.0224,0.338,-0.064,0.926,192,10,144,254,0,28,240,0,0,0,0
 2023-06-27 18:19:01.854,-187500.0224,-187500.0224,-187500.0224,-176698.0725,-187500.0224,-182662.5237,-187500.0224,-187500.0224,0.338,-0.064,0.926,192,0,0,0,0,0,0,0,0,0,0
 2023-06-27 18:19:01.854,-187500.0224,-187500.0224,-187500.0224,-176019.4064,-186558.2092,-181415.8775,-187500.0224,-187500.0224,0.338,-0.064,0.926,192,0,0,0,0,0,0,0,0,0,0
 2023-06-27 18:19:01.854,-187500.0224,-187500.0224,-187500.0224,-175476.0355,-185762.3083,-180429.8974,-187500.0224,-187500.0224,0.338,-0.064,0.926,192,0,0,0,0,0,0,0,0,0,0
 2023-06-27 18:19:01.854,-187500.0224,-187500.0224,-187500.0224,-175785.5178,-186400.2271,-181003.8455,-187500.0224,-187500.0224,0.338,-0.064,0.926,192,0,0,0,0,0,0,0,0,0,0
 2023-06-27 18:19:01.854,-187500.0224,-187500.0224,-187500.0224,-176564.0737,-187500.0224,-182428.6574,-187500.0224,-187500.0224,0.338,-0.064,0.926,192,0,0,0,0,0,0,0,0,0,0
 2023-06-27 18:19:01.854,-187500.0224,-187500.0224,-187500.0224,-176702.8557,-187500.0224,-182669.8998,-187500.0224,-187500.0224,0.338,-0.064,0.926,192,0,0,0,0,0,0,0,0,0,0
 2023-06-27 18:19:01.854,-187500.0224,-187500.0224,-187500.0224,-176031.1858,-186576.7165,-181436.3517,-187500.0224,-187500.0224,0.338,-0.064,0.926,192,0,0,0,0,0,0,0,0,0,0
 2023-06-27 18:19:01.854,-187500.0224,-187500.0224,-187500.0224,-175477.7343,-185763.5824,-180433.3619,-187500.0224,-187500.0224,0.338,-0.064,0.926,192,0,0,0,0,0,0,0,0,0,0
 2023-06-27 18:19:01.855,-187500.0224,-187500.0224,-187500.0224,-175774.8784,-186382.2787,-180985.3159,-187500.0224,-187500.0224,0.338,-0.064,0.926,192,0,0,0,0,0,0,0,0,0,0
 2023-06-27 18:19:01.855,-187500.0224,-187500.0224,-187500.0224,-176555.9601,-187500.0224,-182414.6652,-187500.0224,-187500.0224,0.346,-0.066,0.926,192,10,208,253,240,28,240,0,0,0,0
 2023-06-27 18:19:01.855,-187500.0224,-187500.0224,-187500.0224,-176704.845,-187500.0224,-182674.9066,-187500.0224,-187500.0224,0.346,-0.066,0.926,192,0,0,0,0,0,0,0,0,0,0
 2023-06-27 18:19:01.855,-187500.0224,-187500.0224,-187500.0224,-176043.0769,-186596.0955,-181458.3682,-187500.0224,-187500.0224,0.346,-0.066,0.926,192,0,0,0,0,0,0,0,0,0,0
 2023-06-27 18:19:01.855,-187500.0224,-187500.0224,-187500.0224,-175480.5729,-185766.1528,-180438.7039,-187500.0224,-187500.0224,0.346,-0.066,0.926,192,0,0,0,0,0,0,0,0,0,0
 2023-06-27 18:19:01.855,-187500.0224,-187500.0224,-187500.0224,-175767.4352,-186368.3759,-180971.5472,-187500.0224,-187500.0224,0.346,-0.066,0.926,192,0,0,0,0,0,0,0,0,0,0
 2023-06-27 18:19:01.855,-187500.0224,-187500.0224,-187500.0224,-176549.9251,-187500.0224,-182403.0647,-187500.0224,-187500.0224,0.346,-0.066,0.926,192,0,0,0,0,0,0,0,0,0,0
 2023-06-27 18:19:01.855,-187500.0224,-187500.0224,-187500.0224,-176710.4777,-187500.0224,-182682.1038,-187500.0224,-187500.0224,0.346,-0.066,0.926,192,0,0,0,0,0,0,0,0,0,0
 2023-06-27 18:19:01.855,-187500.0224,-187500.0224,-187500.0224,-176054.6998,-186613.9768,-181477.9483,-187500.0224,-187500.0224,0.346,-0.066,0.926,192,0,0,0,0,0,0,0,0,0,0
 2023-06-27 18:19:01.855,-187500.0224,-187500.0224,-187500.0224,-175481.1988,-185766.6669,-180440.9615,-187500.0224,-187500.0224,0.346,-0.066,0.926,192,0,0,0,0,0,0,0,0,0,0
 2023-06-27 18:19:01.855,-187500.0224,-187500.0224,-187500.0224,-175755.5217,-186349.8686,-180952.4141,-187500.0224,-187500.0224,0.346,-0.066,0.926,192,0,0,0,0,0,0,0,0,0,0
 2023-06-27 18:19:01.855,-187500.0224,-187500.0224,-187500.0224,-176538.861,-187500.0224,-182386.0326,-187500.0224,-187500.0224,0.342,-0.066,0.926,192,10,176,253,240,28,240,0,0,0,0
 2023-06-27 18:19:01.855,-187500.0224,-187500.0224,-187500.0224,-176709.9189,-187500.0224,-182683.8026,-187500.0224,-187500.0224,0.342,-0.066,0.926,192,0,0,0,0,0,0,0,0,0,0
 2023-06-27 18:19:01.855,-187500.0224,-187500.0224,-187500.0224,-176064.3558,-186630.8748,-181496.9473,-187500.0224,-187500.0224,0.342,-0.066,0.926,192,0,0,0,0,0,0,0,0,0,0
 2023-06-27 18:19:01.855,-187500.0224,-187500.0224,-187500.0224,-175484.1492,-185768.7903,-180445.4542,-187500.0224,-187500.0224,0.342,-0.066,0.926,192,0,0,0,0,0,0,0,0,0,0
 2023-06-27 18:19:01.855,-187500.0224,-187500.0224,-187500.0224,-175746.1117,-186330.6908,-180932.1634,-187500.0224,-187500.0224,0.342,-0.066,0.926,192,0,0,0,0,0,0,0,0,0,0
 2023-06-27 18:19:01.855,-187500.0224,-187500.0224,-187500.0224,-176531.2837,-187500.0224,-182368.5759,-187500.0224,-187500.0224,0.342,-0.066,0.926,192,0,0,0,0,0,0,0,0,0,0
 2023-06-27 18:19:01.855,-187500.0224,-187500.0224,-187500.0224,-176709.1813,-187500.0224,-182683.4896,-187500.0224,-187500.0224,0.342,-0.066,0.926,192,0,0,0,0,0,0,0,0,0,0
 2023-06-27 18:19:01.855,-187500.0224,-187500.0224,-187500.0224,-176069.6532,-186643.1459,-181509.7548,-187500.0224,-187500.0224,0.342,-0.066,0.926,192,0,0,0,0,0,0,0,0,0,0
 2023-06-27 18:19:01.855,-187500.0224,-187500.0224,-187500.0224,-175484.261,-185769.2597,-180446.907,-187500.0224,-187500.0224,0.342,-0.066,0.926,192,0,0,0,0,0,0,0,0,0,0
 2023-06-27 18:19:01.855,-187500.0224,-187500.0224,-187500.0224,-175733.6841,-186311.6472,-180911.6445,-187500.0224,-187500.0224,0.342,-0.066,0.926,192,0,0,0,0,0,0,0,0,0,0
 2023-06-27 18:19:01.855,-187500.0224,-187500.0224,-187500.0224,-176519.9738,-187500.0224,-182350.3592,-187500.0224,-187500.0224,0.34,-0.064,0.928,192,10,160,254,0,29,0,0,0,0,0
 2023-06-27 18:19:01.855,-187500.0224,-187500.0224,-187500.0224,-176711.0141,-187500.0224,-182686.9542,-187500.0224,-187500.0224,0.34,-0.064,0.928,192,0,0,0,0,0,0,0,0,0,0
 2023-06-27 18:19:01.855,-187500.0224,-187500.0224,-187500.0224,-176081.7231,-186662.7707,-181530.8102,-187500.0224,-187500.0224,0.34,-0.064,0.928,192,0,0,0,0,0,0,0,0,0,0
 2023-06-27 18:19:01.855,-187500.0224,-187500.0224,-187500.0224,-175487.882,-185773.4619,-180453.0985,-187500.0224,-187500.0224,0.34,-0.064,0.928,192,0,0,0,0,0,0,0,0,0,0
 2023-06-27 18:19:01.855,-187500.0224,-187500.0224,-187500.0224,-175725.481,-186296.5821,-180895.9759,-187500.0224,-187500.0224,0.34,-0.064,0.928,192,0,0,0,0,0,0,0,0,0,0
 2023-06-27 18:19:01.855,-187500.0224,-187500.0224,-187500.0224,-176510.5413,-187500.0224,-182333.7072,-187500.0224,-187500.0224,0.34,-0.064,0.928,192,0,0,0,0,0,0,0,0,0,0
 2023-06-27 18:19:01.855,-187500.0224,-187500.0224,-187500.0224,-176713.8081,-187500.0224,-182691.3351,-187500.0224,-187500.0224,0.34,-0.064,0.928,192,0,0,0,0,0,0,0,0,0,0
 2023-06-27 18:19:01.855,-187500.0224,-187500.0224,-187500.0224,-176091.4014,-186678.9981,-181548.0881,-187500.0224,-187500.0224,0.34,-0.064,0.928,192,0,0,0,0,0,0,0,0,0,0
 2023-06-27 18:19:01.855,-187500.0224,-187500.0224,-187500.0224,-175490.3854,-185776.4346,-180457.5912,-187500.0224,-187500.0224,0.34,-0.064,0.928,192,0,0,0,0,0,0,0,0,0,0
 2023-06-27 18:19:01.855,-187500.0224,-187500.0224,-187500.0224,-175718.5743,-186283.8192,-180882.4755,-187500.0224,-187500.0224,0.34,-0.064,0.928,192,0,0,0,0,0,0,0,0,0,0
 2023-06-27 18:19:01.855,-187500.0224,-187500.0224,-187500.0224,-176503.8581,-187500.0224,-182320.095,-187500.0224,-187500.0224,0.342,-0.058,0.924,192,10,176,254,48,28,224,0,0,0,0
 2023-06-27 18:19:01.855,-187500.0224,-187500.0224,-187500.0224,-176715.4845,-187500.0224,-182693.3021,-187500.0224,-187500.0224,0.342,-0.058,0.924,192,0,0,0,0,0,0,0,0,0,0
 2023-06-27 18:19:01.855,-187500.0224,-187500.0224,-187500.0224,-176103.0914,-186697.7959,-181568.0929,-187500.0224,-187500.0224,0.342,-0.058,0.924,192,0,0,0,0,0,0,0,0,0,0
 2023-06-27 18:19:01.855,-187500.0224,-187500.0224,-187500.0224,-175491.9723,-185778.4239,-180461.2122,-187500.0224,-187500.0224,0.342,-0.058,0.924,192,0,0,0,0,0,0,0,0,0,0
 2023-06-27 18:19:01.855,-187500.0224,-187500.0224,-187500.0224,-175709.8348,-186268.3295,-180865.9352,-187500.0224,-187500.0224,0.342,-0.058,0.924,192,0,0,0,0,0,0,0,0,0,0
 2023-06-27 18:19:01.855,-187500.0224,-187500.0224,-187500.0224,-176496.2139,-187500.0224,-182304.0911,-187500.0224,-187500.0224,0.342,-0.058,0.924,192,0,0,0,0,0,0,0,0,0,0
 2023-06-27 18:19:01.855,-187500.0224,-187500.0224,-187500.0224,-176713.8304,-187500.0224,-182692.2515,-187500.0224,-187500.0224,0.342,-0.058,0.924,192,0,0,0,0,0,0,0,0,0,0
 2023-06-27 18:19:01.855,-187500.0224,-187500.0224,-187500.0224,-176108.4781,-186709.7317,-181580.6322,-187500.0224,-187500.0224,0.342,-0.058,0.924,192,0,0,0,0,0,0,0,0,0,0
 2023-06-27 18:19:01.855,-187500.0224,-187500.0224,-187500.0224,-175493.1793,-185779.4074,-180463.045,-187500.0224,-187500.0224,0.342,-0.058,0.924,192,0,0,0,0,0,0,0,0,0,0
 2023-06-27 18:19:01.855,-187500.0224,-187500.0224,-187500.0224,-175699.5977,-186250.4704,-180846.3551,-187500.0224,-187500.0224,0.342,-0.058,0.924,192,0,0,0,0,0,0,0,0,0,0
 2023-06-27 18:19:01.855,-187500.0224,-187500.0224,-187500.0224,-176484.6804,-187500.0224,-182283.1252,-187500.0224,-187500.0224,0.34,-0.062,0.924,192,10,160,254,16,28,224,0,0,0,0
 2023-06-27 18:19:01.855,-187500.0224,-187500.0224,-187500.0224,-176716.7809,-187500.0224,-182694.0844,-187500.0224,-187500.0224,0.34,-0.062,0.924,192,0,0,0,0,0,0,0,0,0,0
 2023-06-27 18:19:01.855,-187500.0224,-187500.0224,-187500.0224,-176120.2128,-186728.0155,-181598.5583,-187500.0224,-187500.0224,0.34,-0.062,0.924,192,0,0,0,0,0,0,0,0,0,0
 2023-06-27 18:19:01.855,-187500.0224,-187500.0224,-187500.0224,-175496.5544,-185783.0955,-180466.8448,-187500.0224,-187500.0224,0.34,-0.062,0.924,192,0,0,0,0,0,0,0,0,0,0
 2023-06-27 18:19:01.855,-187500.0224,-187500.0224,-187500.0224,-175688.2877,-186231.8738,-180825.255,-187500.0224,-187500.0224,0.34,-0.062,0.924,192,0,0,0,0,0,0,0,0,0,0
 2023-06-27 18:19:01.855,-187500.0224,-187500.0224,-187500.0224,-176471.1352,-187500.0224,-182259.2759,-187500.0224,-187500.0224,0.34,-0.062,0.924,192,0,0,0,0,0,0,0,0,0,0
 2023-06-27 18:19:01.855,-187500.0224,-187500.0224,-187500.0224,-176714.881,-187500.0224,-182691.5586,-187500.0224,-187500.0224,0.34,-0.062,0.924,192,0,0,0,0,0,0,0,0,0,0
 2023-06-27 18:19:01.855,-187500.0224,-187500.0224,-187500.0224,-176128.3488,-186743.8181,-181613.8246,-187500.0224,-187500.0224,0.34,-0.062,0.924,192,0,0,0,0,0,0,0,0,0,0
 2023-06-27 18:19:01.855,-187500.0224,-187500.0224,-187500.0224,-175498.499,-185785.5094,-180469.3035,-187500.0224,-187500.0224,0.34,-0.062,0.924,192,0,0,0,0,0,0,0,0,0,0
 2023-06-27 18:19:01.855,-187500.0224,-187500.0224,-187500.0224,-175677.4248,-186213.8806,-180804.6914,-187500.0224,-187500.0224,0.34,-0.062,0.924,192,0,0,0,0,0,0,0,0,0,0
 2023-06-27 18:19:01.856,-187500.0224,-187500.0224,-187500.0224,-176462.1945,-187500.0224,-182240.4334,-187500.0224,-187500.0224,0.338,-0.06,0.92,192,10,144,254,32,28,192,0,0,0,0
 2023-06-27 18:19:01.856,-187500.0224,-187500.0224,-187500.0224,-176715.8421,-187500.0224,-182691.4692,-187500.0224,-187500.0224,0.338,-0.06,0.92,192,0,0,0,0,0,0,0,0,0,0
 2023-06-27 18:19:01.856,-187500.0224,-187500.0224,-187500.0224,-176136.619,-186759.2408,-181628.4426,-187500.0224,-187500.0224,0.338,-0.06,0.92,192,0,0,0,0,0,0,0,0,0,0
 2023-06-27 18:19:01.856,-187500.0224,-187500.0224,-187500.0224,-175498.9461,-185786.4929,-180470.0634,-187500.0224,-187500.0224,0.338,-0.06,0.92,192,0,0,0,0,0,0,0,0,0,0
 2023-06-27 18:19:01.856,-187500.0224,-187500.0224,-187500.0224,-175667.9029,-186198.8379,-180787.1676,-187500.0224,-187500.0224,0.338,-0.06,0.92,192,0,0,0,0,0,0,0,0,0,0
 2023-06-27 18:19:01.856,-187500.0224,-187500.0224,-187500.0224,-176449.901,-187500.0224,-182220.0039,-187500.0224,-187500.0224,0.338,-0.06,0.92,192,0,0,0,0,0,0,0,0,0,0
 2023-06-27 18:19:01.856,-187500.0224,-187500.0224,-187500.0224,-176714.3222,-187500.0224,-182689.5693,-187500.0224,-187500.0224,0.338,-0.06,0.92,192,0,0,0,0,0,0,0,0,0,0
 2023-06-27 18:19:01.856,-187500.0224,-187500.0224,-187500.0224,-176146.4985,-186776.2505,-181645.0052,-187500.0224,-187500.0224,0.338,-0.06,0.92,192,0,0,0,0,0,0,0,0,0,0
 2023-06-27 18:19:01.856,-187500.0224,-187500.0224,-187500.0224,-175499.7731,-185787.9458,-180471.7622,-187500.0224,-187500.0224,0.338,-0.06,0.92,192,0,0,0,0,0,0,0,0,0,0
 2023-06-27 18:19:01.856,-187500.0224,-187500.0224,-187500.0224,-175655.1624,-186179.6154,-180765.8888,-187500.0224,-187500.0224,0.338,-0.06,0.92,192,0,0,0,0,0,0,0,0,0,0
 2023-06-27 18:19:01.856,-187500.0224,-187500.0224,-187500.0224,-176437.0488,-187485.5161,-182198.0992,-187500.0224,-187500.0224,0.338,-0.06,0.92,192,0,0,0,0,0,0,0,0,0,0
 2023-06-27 18:19:01.856,-187500.0224,-187500.0224,-187500.0224,-176710.88,-187500.0224,-182686.6189,-187500.0224,-187500.0224,0.344,-0.066,0.92,192,10,192,253,240,28,192,0,0,0,0
 2023-06-27 18:19:01.856,-187500.0224,-187500.0224,-187500.0224,-176153.1816,-186791.0474,-181660.1597,-187500.0224,-187500.0224,0.344,-0.066,0.92,192,0,0,0,0,0,0,0,0,0,0
 2023-06-27 18:19:01.856,-187500.0224,-187500.0224,-187500.0224,-175501.4718,-185790.9856,-180476.1878,-187500.0224,-187500.0224,0.344,-0.066,0.92,192,0,0,0,0,0,0,0,0,0,0
 2023-06-27 18:19:01.856,-187500.0224,-187500.0224,-187500.0224,-175649.9768,-186167.5008,-180752.7013,-187500.0224,-187500.0224,0.344,-0.066,0.92,192,0,0,0,0,0,0,0,0,0,0
 2023-06-27 18:19:01.856,-187500.0224,-187500.0224,-187500.0224,-176428.8457,-187471.658,-182180.1954,-187500.0224,-187500.0224,0.344,-0.066,0.92,192,0,0,0,0,0,0,0,0,0,0
 2023-06-27 18:19:01.856,-187500.0224,-187500.0224,-187500.0224,-176714.8586,-187500.0224,-182690.5304,-187500.0224,-187500.0224,0.344,-0.066,0.92,192,0,0,0,0,0,0,0,0,0,0
 2023-06-27 18:19:01.856,-187500.0224,-187500.0224,-187500.0224,-176167.7997,-186812.7733,-181682.3103,-187500.0224,-187500.0224,0.344,-0.066,0.92,192,0,0,0,0,0,0,0,0,0,0
 2023-06-27 18:19:01.856,-187500.0224,-187500.0224,-187500.0224,-175509.2279,-185799.0993,-180485.2403,-187500.0224,-187500.0224,0.344,-0.066,0.92,192,0,0,0,0,0,0,0,0,0,0
 2023-06-27 18:19:01.856,-187500.0224,-187500.0224,-187500.0224,-175642.5784,-186154.0227,-180737.7479,-187500.0224,-187500.0224,0.344,-0.066,0.92,192,0,0,0,0,0,0,0,0,0,0
 2023-06-27 18:19:01.856,-187500.0224,-187500.0224,-187500.0224,-176418.5192,-187456.8835,-182161.7329,-187500.0224,-187500.0224,0.344,-0.066,0.92,192,0,0,0,0,0,0,0,0,0,0
 2023-06-27 18:19:01.856,-187500.0224,-187500.0224,-187500.0224,-176715.2162,-187500.0224,-182691.3351,-187500.0224,-187500.0224,0.344,-0.066,0.92,192,10,192,253,240,28,192,0,0,0,0
 2023-06-27 18:19:01.856,-187500.0224,-187500.0224,-187500.0224,-176174.4158,-186826.0278,-181695.9002,-187500.0224,-187500.0224,0.344,-0.066,0.92,192,0,0,0,0,0,0,0,0,0,0
 2023-06-27 18:19:01.856,-187500.0224,-187500.0224,-187500.0224,-175508.8926,-185798.0488,-180484.5027,-187500.0224,-187500.0224,0.344,-0.066,0.92,192,0,0,0,0,0,0,0,0,0,0
 2023-06-27 18:19:01.856,-187500.0224,-187500.0224,-187500.0224,-175631.8048,-186135.0907,-180716.1338,-187500.0224,-187500.0224,0.344,-0.066,0.92,192,0,0,0,0,0,0,0,0,0,0
 2023-06-27 18:19:01.856,-187500.0224,-187500.0224,-187500.0224,-176407.2763,-187439.9856,-182139.4258,-187500.0224,-187500.0224,0.344,-0.066,0.92,192,0,0,0,0,0,0,0,0,0,0
 2023-06-27 18:19:01.856,-187500.0224,-187500.0224,-187500.0224,-176714.8586,-187500.0224,-182688.6752,-187500.0224,-187500.0224,0.344,-0.066,0.92,192,0,0,0,0,0,0,0,0,0,0
 2023-06-27 18:19:01.856,-187500.0224,-187500.0224,-187500.0224,-176181.3001,-186839.3942,-181707.6795,-187500.0224,-187500.0224,0.344,-0.066,0.92,192,0,0,0,0,0,0,0,0,0,0
 2023-06-27 18:19:01.856,-187500.0224,-187500.0224,-187500.0224,-175504.7128,-185793.3549,-180478.3783,-187500.0224,-187500.0224,0.344,-0.066,0.92,192,0,0,0,0,0,0,0,0,0,0
 2023-06-27 18:19:01.856,-187500.0224,-187500.0224,-187500.0224,-175613.5658,-186109.8109,-180686.786,-187500.0224,-187500.0224,0.344,-0.066,0.92,192,0,0,0,0,0,0,0,0,0,0
 2023-06-27 18:19:01.856,-187500.0224,-187500.0224,-187500.0224,-176388.1432,-187415.6669,-182108.5804,-187500.0224,-187500.0224,0.344,-0.066,0.92,192,0,0,0,0,0,0,0,0,0,0
 2023-06-27 18:19:01.856,-187500.0224,-187500.0224,-187500.0224,-176706.2979,-187500.0224,-182676.8735,-187500.0224,-187500.0224,0.35,-0.066,0.924,192,10,240,253,240,28,224,0,0,0,0
 2023-06-27 18:19:01.856,-187500.0224,-187500.0224,-187500.0224,-176182.2613,-186847.6196,-181713.111,-187500.0224,-187500.0224,0.35,-0.066,0.924,192,0,0,0,0,0,0,0,0,0,0
 2023-06-27 18:19:01.856,-187500.0224,-187500.0224,-187500.0224,-175503.4164,-185793.5337,-180476.769,-187500.0224,-187500.0224,0.35,-0.066,0.924,192,0,0,0,0,0,0,0,0,0,0
 2023-06-27 18:19:01.856,-187500.0224,-187500.0224,-187500.0224,-175605.318,-186096.1316,-180669.2845,-187500.0224,-187500.0224,0.35,-0.066,0.924,192,0,0,0,0,0,0,0,0,0,0
 2023-06-27 18:19:01.856,-187500.0224,-187500.0224,-187500.0224,-176378.2637,-187401.7641,-182088.5086,-187500.0224,-187500.0224,0.35,-0.066,0.924,192,0,0,0,0,0,0,0,0,0,0
 2023-06-27 18:19:01.856,-187500.0224,-187500.0224,-187500.0224,-176703.638,-187500.0224,-182673.1408,-187500.0224,-187500.0224,0.35,-0.066,0.924,192,0,0,0,0,0,0,0,0,0,0
 2023-06-27 18:19:01.856,-187500.0224,-187500.0224,-187500.0224,-176190.4196,-186864.674,-181728.9137,-187500.0224,-187500.0224,0.35,-0.066,0.924,192,0,0,0,0,0,0,0,0,0,0
 2023-06-27 18:19:01.856,-187500.0224,-187500.0224,-187500.0224,-175503.5282,-185795.903,-180479.0488,-187500.0224,-187500.0224,0.35,-0.066,0.924,192,0,0,0,0,0,0,0,0,0,0
 2023-06-27 18:19:01.857,-187500.0224,-187500.0224,-187500.0224,-175593.181,-186077.8703,-180648.4527,-187500.0224,-187500.0224,0.35,-0.066,0.924,192,0,0,0,0,0,0,0,0,0,0
 2023-06-27 18:19:01.857,-187500.0224,-187500.0224,-187500.0224,-176363.5562,-187381.8934,-182063.2064,-187500.0224,-187500.0224,0.35,-0.066,0.924,192,0,0,0,0,0,0,0,0,0,0
 2023-06-27 18:19:01.857,-187500.0224,-187500.0224,-187500.0224,-176703.2357,-187500.0224,-182671.6656,-187500.0224,-187500.0224,0.35,-0.064,0.922,192,10,240,254,0,28,208,0,0,0,0
 2023-06-27 18:19:01.857,-187500.0224,-187500.0224,-187500.0224,-176200.1873,-186882.3095,-181745.2528,-187500.0224,-187500.0224,0.35,-0.064,0.922,192,0,0,0,0,0,0,0,0,0,0
 2023-06-27 18:19:01.857,-187500.0224,-187500.0224,-187500.0224,-175508.3338,-185802.6085,-180485.352,-187500.0224,-187500.0224,0.35,-0.064,0.922,192,0,0,0,0,0,0,0,0,0,0
 2023-06-27 18:19:02.335,-187500.0224,-187500.0224,-187500.0224,-175585.8273,-186065.1074,-180633.1418,-187500.0224,-187500.0224,0.35,-0.064,0.922,192,0,0,0,0,0,0,0,0,0,0
 2023-06-27 18:19:02.335,-187500.0224,-187500.0224,-187500.0224,-176353.8779,-187367.7224,-182043.7604,-187500.0224,-187500.0224,0.35,-0.064,0.922,192,0,0,0,0,0,0,0,0,0,0
 2023-06-27 18:19:02.335,-187500.0224,-187500.0224,-187500.0224,-176701.2911,-187500.0224,-182668.3799,-187500.0224,-187500.0224,0.35,-0.064,0.922,192,0,0,0,0,0,0,0,0,0,0
 2023-06-27 18:19:02.335,-187500.0224,-187500.0224,-187500.0224,-176209.821,-186899.5427,-181761.1673,-187500.0224,-187500.0224,0.35,-0.064,0.922,192,0,0,0,0,0,0,0,0,0,0
 2023-06-27 18:19:02.335,-187500.0224,-187500.0224,-187500.0224,-175511.7313,-185807.2353,-180489.353,-187500.0224,-187500.0224,0.35,-0.064,0.922,192,0,0,0,0,0,0,0,0,0,0
 2023-06-27 18:19:02.335,-187500.0224,-187500.0224,-187500.0224,-175573.9809,-186047.4495,-180612.377,-187500.0224,-187500.0224,0.35,-0.064,0.922,192,0,0,0,0,0,0,0,0,0,0
 2023-06-27 18:19:02.335,-187500.0224,-187500.0224,-187500.0224,-176338.3882,-187347.6058,-182018.19,-187500.0224,-187500.0224,0.35,-0.064,0.922,192,0,0,0,0,0,0,0,0,0,0
 2023-06-27 18:19:02.335,-187500.0224,-187500.0224,-187500.0224,-176700.0618,-187500.0224,-182666.1447,-187500.0224,-187500.0224,0.35,-0.066,0.922,192,10,240,253,240,28,208,0,0,0,0
 2023-06-27 18:19:02.335,-187500.0224,-187500.0224,-187500.0224,-176217.9123,-186915.8819,-181776.6123,-187500.0224,-187500.0224,0.35,-0.066,0.922,192,0,0,0,0,0,0,0,0,0,0
 2023-06-27 18:19:02.335,-187500.0224,-187500.0224,-187500.0224,-175509.742,-185807.0342,-180489.3977,-187500.0224,-187500.0224,0.35,-0.066,0.922,192,0,0,0,0,0,0,0,0,0,0
 2023-06-27 18:19:02.335,-187500.0224,-187500.0224,-187500.0224,-175563.6544,-186032.3174,-180595.412,-187500.0224,-187500.0224,0.35,-0.066,0.922,192,0,0,0,0,0,0,0,0,0,0
 2023-06-27 18:19:02.335,-187500.0224,-187500.0224,-187500.0224,-176329.0228,-187333.7254,-181999.9956,-187500.0224,-187500.0224,0.35,-0.066,0.922,192,0,0,0,0,0,0,0,0,0,0
 2023-06-27 18:19:02.335,-187500.0224,-187500.0224,-187500.0224,-176697.6031,-187500.0224,-182662.5461,-187500.0224,-187500.0224,0.35,-0.066,0.922,192,0,0,0,0,0,0,0,0,0,0
 2023-06-27 18:19:02.335,-187500.0224,-187500.0224,-187500.0224,-176225.0872,-186930.7011,-181790.6045,-187500.0224,-187500.0224,0.35,-0.066,0.922,192,0,0,0,0,0,0,0,0,0,0
 2023-06-27 18:19:02.335,-187500.0224,-187500.0224,-187500.0224,-175513.1841,-185812.2645,-180494.6504,-187500.0224,-187500.0224,0.35,-0.066,0.922,192,0,0,0,0,0,0,0,0,0,0
 2023-06-27 18:19:02.335,-187500.0224,-187500.0224,-187500.0224,-175553.3055,-186015.9783,-180576.5695,-187500.0224,-187500.0224,0.35,-0.066,0.922,192,0,0,0,0,0,0,0,0,0,0
 2023-06-27 18:19:02.335,-187500.0224,-187500.0224,-187500.0224,-176312.8401,-187311.4407,-181972.2348,-187500.0224,-187500.0224,0.35,-0.066,0.922,192,0,0,0,0,0,0,0,0,0,0
 2023-06-27 18:19:02.335,-187500.0224,-187500.0224,-187500.0224,-176695.5691,-187500.0224,-182658.478,-187500.0224,-187500.0224,0.35,-0.066,0.926,192,10,240,253,240,28,240,0,0,0,0
 2023-06-27 18:19:02.335,-187500.0224,-187500.0224,-187500.0224,-176232.9327,-186946.3473,-181804.6638,-187500.0224,-187500.0224,0.35,-0.066,0.926,192,0,0,0,0,0,0,0,0,0,0
 2023-06-27 18:19:02.335,-187500.0224,-187500.0224,-187500.0224,-175516.5369,-185817.2042,-180499.076,-187500.0224,-187500.0224,0.35,-0.066,0.926,192,0,0,0,0,0,0,0,0,0,0
 2023-06-27 18:19:02.335,-187500.0224,-187500.0224,-187500.0224,-175545.1024,-186001.5838,-180559.3363,-187500.0224,-187500.0224,0.35,-0.066,0.926,192,0,0,0,0,0,0,0,0,0,0
 2023-06-27 18:19:02.335,-187500.0224,-187500.0224,-187500.0224,-176300.7031,-187293.8946,-181948.8102,-187500.0224,-187500.0224,0.35,-0.066,0.926,192,0,0,0,0,0,0,0,0,0,0
 2023-06-27 18:19:02.335,-187500.0224,-187500.0224,-187500.0224,-176692.9092,-187500.0224,-182653.9183,-187500.0224,-187500.0224,0.35,-0.066,0.926,192,0,0,0,0,0,0,0,0,0,0
 2023-06-27 18:19:02.335,-187500.0224,-187500.0224,-187500.0224,-176240.8005,-186962.3064,-181819.1253,-187500.0224,-187500.0224,0.35,-0.066,0.926,192,0,0,0,0,0,0,0,0,0,0
 2023-06-27 18:19:02.335,-187500.0224,-187500.0224,-187500.0224,-175520.3367,-185824.0886,-180505.7815,-187500.0224,-187500.0224,0.35,-0.066,0.926,192,0,0,0,0,0,0,0,0,0,0
 2023-06-27 18:19:02.335,-187500.0224,-187500.0224,-187500.0224,-175540.0956,-185992.7101,-180548.831,-187500.0224,-187500.0224,0.35,-0.066,0.926,192,0,0,0,0,0,0,0,0,0,0
 2023-06-27 18:19:02.335,-187500.0224,-187500.0224,-187500.0224,-176294.2211,-187283.1657,-181933.8568,-187500.0224,-187500.0224,0.35,-0.066,0.926,192,0,0,0,0,0,0,0,0,0,0
 2023-06-27 18:19:02.335,-187500.0224,-187500.0224,-187500.0224,-176695.0326,-187500.0224,-182656.1311,-187500.0224,-187500.0224,0.348,-0.062,0.924,192,10,224,254,16,28,224,0,0,0,0
 2023-06-27 18:19:02.335,-187500.0224,-187500.0224,-187500.0224,-176254.1668,-186984.6805,-181841.5441,-187500.0224,-187500.0224,0.348,-0.062,0.924,192,0,0,0,0,0,0,0,0,0,0
 2023-06-27 18:19:02.335,-187500.0224,-187500.0224,-187500.0224,-175526.5952,-185833.4539,-180516.6445,-187500.0224,-187500.0224,0.348,-0.062,0.924,192,0,0,0,0,0,0,0,0,0,0
 2023-06-27 18:19:02.335,-187500.0224,-187500.0224,-187500.0224,-175534.8877,-185983.0765,-180538.6162,-187500.0224,-187500.0224,0.348,-0.062,0.924,192,0,0,0,0,0,0,0,0,0,0
 2023-06-27 18:19:02.335,-187500.0224,-187500.0224,-187500.0224,-176285.3698,-187268.9947,-181916.3107,-187500.0224,-187500.0224,0.348,-0.062,0.924,192,0,0,0,0,0,0,0,0,0,0
 2023-06-27 18:19:02.335,-187500.0224,-187500.0224,-187500.0224,-176696.709,-187500.0224,-182657.3381,-187500.0224,-187500.0224,0.348,-0.062,0.924,192,0,0,0,0,0,0,0,0,0,0
 2023-06-27 18:19:02.335,-187500.0224,-187500.0224,-187500.0224,-176265.2756,-187003.7689,-181860.9678,-187500.0224,-187500.0224,0.348,-0.062,0.924,192,0,0,0,0,0,0,0,0,0,0
 2023-06-27 18:19:02.335,-187500.0224,-187500.0224,-187500.0224,-175530.5738,-185839.3771,-180523.9535,-187500.0224,-187500.0224,0.348,-0.062,0.924,192,0,0,0,0,0,0,0,0,0,0
 2023-06-27 18:19:02.335,-187500.0224,-187500.0224,-187500.0224,-175525.5893,-185968.3467,-180522.903,-187500.0224,-187500.0224,0.348,-0.062,0.924,192,0,0,0,0,0,0,0,0,0,0
 2023-06-27 18:19:02.335,-187500.0224,-187500.0224,-187500.0224,-176268.3602,-187246.7547,-181890.5392,-187500.0224,-187500.0224,0.348,-0.062,0.924,192,0,0,0,0,0,0,0,0,0,0
 2023-06-27 18:19:02.335,-187500.0224,-187500.0224,-187500.0224,-176690.7634,-187500.0224,-182651.6161,-187500.0224,-187500.0224,0.346,-0.068,0.922,192,10,208,253,224,28,208,0,0,0,0
 2023-06-27 18:19:02.335,-187500.0224,-187500.0224,-187500.0224,-176273.5905,-187019.9963,-181877.5751,-187500.0224,-187500.0224,0.346,-0.068,0.922,192,0,0,0,0,0,0,0,0,0,0
 2023-06-27 18:19:02.335,-187500.0224,-187500.0224,-187500.0224,-175536.7652,-185848.452,-180534.8612,-187500.0224,-187500.0224,0.346,-0.068,0.922,192,0,0,0,0,0,0,0,0,0,0
 2023-06-27 18:19:02.335,-187500.0224,-187500.0224,-187500.0224,-175523.4212,-185962.4011,-180517.3597,-187500.0224,-187500.0224,0.346,-0.068,0.922,192,0,0,0,0,0,0,0,0,0,0
 2023-06-27 18:19:02.335,-187500.0224,-187500.0224,-187500.0224,-176265.4321,-187239.0657,-181880.7938,-187500.0224,-187500.0224,0.346,-0.068,0.922,192,0,0,0,0,0,0,0,0,0,0
 2023-06-27 18:19:02.335,-187500.0224,-187500.0224,-187500.0224,-176698.5195,-187500.0224,-182660.2438,-187500.0224,-187500.0224,0.346,-0.068,0.922,192,0,0,0,0,0,0,0,0,0,0
 2023-06-27 18:19:02.335,-187500.0224,-187500.0224,-187500.0224,-176288.1191,-187042.4821,-181901.6033,-187500.0224,-187500.0224,0.346,-0.068,0.922,192,0,0,0,0,0,0,0,0,0,0
 2023-06-27 18:19:02.335,-187500.0224,-187500.0224,-187500.0224,-175543.8284,-185857.7279,-180546.8417,-187500.0224,-187500.0224,0.346,-0.068,0.922,192,0,0,0,0,0,0,0,0,0,0
 2023-06-27 18:19:02.335,-187500.0224,-187500.0224,-187500.0224,-175515.5758,-185948.4984,-180503.7028,-187500.0224,-187500.0224,0.346,-0.068,0.922,192,0,0,0,0,0,0,0,0,0,0
 2023-06-27 18:19:02.335,-187500.0224,-187500.0224,-187500.0224,-176249.2271,-187214.9035,-181852.9659,-187500.0224,-187500.0224,0.346,-0.068,0.922,192,0,0,0,0,0,0,0,0,0,0
 2023-06-27 18:19:02.335,-187500.0224,-187500.0224,-187500.0224,-176691.5905,-187500.0224,-182650.7667,-187500.0224,-187500.0224,0.344,-0.066,0.928,192,10,192,253,240,29,0,0,0,0,0
 2023-06-27 18:19:02.335,-187500.0224,-187500.0224,-187500.0224,-176295.2717,-187056.8767,-181915.4166,-187500.0224,-187500.0224,0.344,-0.066,0.928,192,0,0,0,0,0,0,0,0,0,0
 2023-06-27 18:19:02.335,-187500.0224,-187500.0224,-187500.0224,-175549.1704,-185865.0593,-180554.933,-187500.0224,-187500.0224,0.344,-0.066,0.928,192,0,0,0,0,0,0,0,0,0,0
 2023-06-27 18:19:02.336,-187500.0224,-187500.0224,-187500.0224,-175510.569,-185938.1719,-180492.214,-187500.0224,-187500.0224,0.344,-0.066,0.928,192,0,0,0,0,0,0,0,0,0,0
 2023-06-27 18:19:02.336,-187500.0224,-187500.0224,-187500.0224,-176237.8053,-187197.4915,-181831.6423,-187500.0224,-187500.0224,0.344,-0.066,0.928,192,0,0,0,0,0,0,0,0,0,0
 2023-06-27 18:19:02.336,-187500.0224,-187500.0224,-187500.0224,-176688.6847,-187500.0224,-182645.4693,-187500.0224,-187500.0224,0.344,-0.066,0.928,192,0,0,0,0,0,0,0,0,0,0
 2023-06-27 18:19:02.336,-187500.0224,-187500.0224,-187500.0224,-176301.2843,-187069.8183,-181927.576,-187500.0224,-187500.0224,0.344,-0.066,0.928,192,0,0,0,0,0,0,0,0,0,0
 2023-06-27 18:19:02.336,-187500.0224,-187500.0224,-187500.0224,-175552.0538,-185869.4179,-180559.6045,-187500.0224,-187500.0224,0.344,-0.066,0.928,192,0,0,0,0,0,0,0,0,0,0
 2023-06-27 18:19:02.336,-187500.0224,-187500.0224,-187500.0224,-175502.8129,-185924.3138,-180476.3219,-187500.0224,-187500.0224,0.344,-0.066,0.928,192,0,0,0,0,0,0,0,0,0,0
 2023-06-27 18:19:02.336,-187500.0224,-187500.0224,-187500.0224,-176226.3165,-187178.9395,-181807.6365,-187500.0224,-187500.0224,0.344,-0.066,0.928,192,0,0,0,0,0,0,0,0,0,0
 2023-06-27 18:19:02.336,-187500.0224,-187500.0224,-187500.0224,-176688.6847,-187500.0224,-182642.0048,-187500.0224,-187500.0224,0.34,-0.07,0.928,192,10,160,253,208,29,0,0,0,0,0
 2023-06-27 18:19:02.336,-187500.0224,-187500.0224,-187500.0224,-176310.4485,-187086.4704,-181942.3058,-187500.0224,-187500.0224,0.34,-0.07,0.928,192,0,0,0,0,0,0,0,0,0,0
 2023-06-27 18:19:02.336,-187500.0224,-187500.0224,-187500.0224,-175554.4231,-185874.3576,-180564.1196,-187500.0224,-187500.0224,0.34,-0.07,0.928,192,0,0,0,0,0,0,0,0,0,0
 2023-06-27 18:19:02.336,-187500.0224,-187500.0224,-187500.0224,-175492.017,-185909.4946,-180459.0887,-187500.0224,-187500.0224,0.34,-0.07,0.928,192,0,0,0,0,0,0,0,0,0,0
 2023-06-27 18:19:02.336,-187500.0224,-187500.0224,-187500.0224,-176211.1621,-187158.9347,-181782.8708,-187500.0224,-187500.0224,0.34,-0.07,0.928,192,0,0,0,0,0,0,0,0,0,0
 2023-06-27 18:19:02.336,-187500.0224,-187500.0224,-187500.0224,-176681.6216,-187500.0224,-182633.5558,-187500.0224,-187500.0224,0.34,-0.07,0.928,192,0,0,0,0,0,0,0,0,0,0
 2023-06-27 18:19:02.336,-187500.0224,-187500.0224,-187500.0224,-176313.7789,-187098.1603,-181953.3476,-187500.0224,-187500.0224,0.34,-0.07,0.928,192,0,0,0,0,0,0,0,0,0,0
 2023-06-27 18:19:02.336,-187500.0224,-187500.0224,-187500.0224,-175556.3454,-185879.6773,-180570.3334,-187500.0224,-187500.0224,0.34,-0.07,0.928,192,0,0,0,0,0,0,0,0,0,0
 2023-06-27 18:19:02.336,-187500.0224,-187500.0224,-187500.0224,-175486.2056,-185899.7716,-180448.6728,-187500.0224,-187500.0224,0.34,-0.07,0.928,192,0,0,0,0,0,0,0,0,0,0
 2023-06-27 18:19:02.336,-187500.0224,-187500.0224,-187500.0224,-176199.9191,-187141.7909,-181762.3519,-187500.0224,-187500.0224,0.34,-0.07,0.928,192,0,0,0,0,0,0,0,0,0,0
 2023-06-27 18:19:02.336,-187500.0224,-187500.0224,-187500.0224,-176680.7275,-187500.0224,-182630.5384,-187500.0224,-187500.0224,0.34,-0.068,0.926,192,10,160,253,224,28,240,0,0,0,0
 2023-06-27 18:19:02.336,-187500.0224,-187500.0224,-187500.0224,-176324.5301,-187116.1982,-181970.4019,-187500.0224,-187500.0224,0.34,-0.068,0.926,192,0,0,0,0,0,0,0,0,0,0
 2023-06-27 18:19:02.336,-187500.0224,-187500.0224,-187500.0224,-175562.2015,-185888.0369,-180579.0282,-187500.0224,-187500.0224,0.34,-0.068,0.926,192,0,0,0,0,0,0,0,0,0,0
 2023-06-27 18:19:02.336,-187500.0224,-187500.0224,-187500.0224,-175478.5166,-185886.964,-180434.1218,-187500.0224,-187500.0224,0.34,-0.068,0.926,192,0,0,0,0,0,0,0,0,0,0
 2023-06-27 18:19:02.336,-187500.0224,-187500.0224,-187500.0224,-176183.6918,-187118.8804,-181734.5016,-187500.0224,-187500.0224,0.34,-0.068,0.926,192,0,0,0,0,0,0,0,0,0,0
 2023-06-27 18:19:02.336,-187500.0224,-187500.0224,-187500.0224,-176674.7372,-187500.0224,-182623.207,-187500.0224,-187500.0224,0.34,-0.068,0.926,192,0,0,0,0,0,0,0,0,0,0
 2023-06-27 18:19:02.336,-187500.0224,-187500.0224,-187500.0224,-176333.0461,-187133.6996,-181987.4116,-187500.0224,-187500.0224,0.34,-0.068,0.926,192,0,0,0,0,0,0,0,0,0,0
 2023-06-27 18:19:02.336,-187500.0224,-187500.0224,-187500.0224,-175569.1529,-185900.0398,-180592.6851,-187500.0224,-187500.0224,0.34,-0.068,0.926,192,0,0,0,0,0,0,0,0,0,0
 2023-06-27 18:19:02.336,-187500.0224,-187500.0224,-187500.0224,-175475.1638,-185881.3984,-180429.0703,-187500.0224,-187500.0224,0.34,-0.068,0.926,192,0,0,0,0,0,0,0,0,0,0
 2023-06-27 18:19:02.336,-187500.0224,-187500.0224,-187500.0224,-176178.9308,-187111.0349,-181724.868,-187500.0224,-187500.0224,0.34,-0.068,0.926,192,0,0,0,0,0,0,0,0,0,0
 2023-06-27 18:19:02.336,-187500.0224,-187500.0224,-187500.0224,-176683.0744,-187500.0224,-182634.6958,-187500.0224,-187500.0224,0.34,-0.068,0.924,192,10,160,253,224,28,224,0,0,0,0
 2023-06-27 18:19:02.336,-187500.0224,-187500.0224,-187500.0224,-176348.4018,-187157.2136,-182013.5855,-187500.0224,-187500.0224,0.34,-0.068,0.924,192,0,0,0,0,0,0,0,0,0,0
 2023-06-27 18:19:02.336,-187500.0224,-187500.0224,-187500.0224,-175580.0158,-185913.5179,-180609.963,-187500.0224,-187500.0224,0.34,-0.068,0.924,192,0,0,0,0,0,0,0,0,0,0
 2023-06-27 18:19:02.336,-187500.0224,-187500.0224,-187500.0224,-175477.0861,-185879.4538,-180429.048,-187500.0224,-187500.0224,0.34,-0.068,0.924,192,0,0,0,0,0,0,0,0,0,0
 2023-06-27 18:19:02.336,-187500.0224,-187500.0224,-187500.0224,-176177.0086,-187106.1846,-181720.3753,-187500.0224,-187500.0224,0.34,-0.068,0.924,192,0,0,0,0,0,0,0,0,0,0
 2023-06-27 18:19:02.336,-187500.0224,-187500.0224,-187500.0224,-176685.5108,-187500.0224,-182639.7249,-187500.0224,-187500.0224,0.34,-0.068,0.924,192,0,0,0,0,0,0,0,0,0,0
 2023-06-27 18:19:02.336,-187500.0224,-187500.0224,-187500.0224,-176361.7905,-187177.7773,-182037.3454,-187500.0224,-187500.0224,0.34,-0.068,0.924,192,0,0,0,0,0,0,0,0,0,0
 2023-06-27 18:19:02.336,-187500.0224,-187500.0224,-187500.0224,-175588.0401,-185924.0456,-180625.2069,-187500.0224,-187500.0224,0.34,-0.068,0.924,192,0,0,0,0,0,0,0,0,0,0
 2023-06-27 18:19:02.336,-187500.0224,-187500.0224,-187500.0224,-175469.8888,-185867.0263,-180418.9674,-187500.0224,-187500.0224,0.34,-0.068,0.924,192,0,0,0,0,0,0,0,0,0,0
 2023-06-27 18:19:02.336,-187500.0224,-187500.0224,-187500.0224,-176165.0728,-187086.9174,-181700.2811,-187500.0224,-187500.0224,0.34,-0.068,0.924,192,0,0,0,0,0,0,0,0,0,0
 2023-06-27 18:19:02.336,-187500.0224,-187500.0224,-187500.0224,-176682.2921,-187500.0224,-182635.4781,-187500.0224,-187500.0224,0.342,-0.066,0.92,192,10,176,253,240,28,192,0,0,0,0
 2023-06-27 18:19:02.336,-187500.0224,-187500.0224,-187500.0224,-176371.0888,-187194.1611,-182055.4503,-187500.0224,-187500.0224,0.342,-0.066,0.92,192,0,0,0,0,0,0,0,0,0,0
 2023-06-27 18:19:02.336,-187500.0224,-187500.0224,-187500.0224,-175597.7408,-185937.479,-180642.4624,-187500.0224,-187500.0224,0.342,-0.066,0.92,192,0,0,0,0,0,0,0,0,0,0
 2023-06-27 18:19:02.336,-187500.0224,-187500.0224,-187500.0224,-175468.5924,-185861.6395,-180415.8828,-187500.0224,-187500.0224,0.342,-0.066,0.92,192,0,0,0,0,0,0,0,0,0,0
 2023-06-27 18:19:02.336,-187500.0224,-187500.0224,-187500.0224,-176158.2778,-187073.1487,-181685.4619,-187500.0224,-187500.0224,0.342,-0.066,0.92,192,0,0,0,0,0,0,0,0,0,0
 2023-06-27 18:19:02.336,-187500.0224,-187500.0224,-187500.0224,-176686.8519,-187500.0224,-182640.5296,-187500.0224,-187500.0224,0.342,-0.066,0.92,192,0,0,0,0,0,0,0,0,0,0
 2023-06-27 18:19:02.336,-187500.0224,-187500.0224,-187500.0224,-176385.2374,-187216.4234,-182079.9925,-187500.0224,-187500.0224,0.342,-0.066,0.92,192,0,0,0,0,0,0,0,0,0,0
 2023-06-27 18:19:02.336,-187500.0224,-187500.0224,-187500.0224,-175610.4589,-185954.4886,-180663.9201,-187500.0224,-187500.0224,0.342,-0.066,0.92,192,0,0,0,0,0,0,0,0,0,0
 2023-06-27 18:19:02.336,-187500.0224,-187500.0224,-187500.0224,-175468.7936,-185857.415,-180414.5417,-187500.0224,-187500.0224,0.342,-0.066,0.92,192,0,0,0,0,0,0,0,0,0,0
 2023-06-27 18:19:02.336,-187500.0224,-187500.0224,-187500.0224,-176146.1855,-187053.7027,-181665.6136,-187500.0224,-187500.0224,0.342,-0.066,0.92,192,0,0,0,0,0,0,0,0,0,0
 2023-06-27 18:19:02.336,-187500.0224,-187500.0224,-187500.0224,-176681.8451,-187500.0224,-182634.9864,-187500.0224,-187500.0224,0.344,-0.07,0.924,192,10,192,253,208,28,224,0,0,0,0
 2023-06-27 18:19:02.336,-187500.0224,-187500.0224,-187500.0224,-176391.8983,-187229.8568,-182095.1694,-187500.0224,-187500.0224,0.344,-0.07,0.924,192,0,0,0,0,0,0,0,0,0,0
 2023-06-27 18:19:02.336,-187500.0224,-187500.0224,-187500.0224,-175617.7456,-185965.4186,-180678.5829,-187500.0224,-187500.0224,0.344,-0.07,0.924,192,0,0,0,0,0,0,0,0,0,0
 2023-06-27 18:19:02.337,-187500.0224,-187500.0224,-187500.0224,-175466.3796,-185851.2459,-180410.5631,-187500.0224,-187500.0224,0.344,-0.07,0.924,192,0,0,0,0,0,0,0,0,0,0
 2023-06-27 18:19:02.337,-187500.0224,-187500.0224,-187500.0224,-176137.5578,-187038.4365,-181649.2968,-187500.0224,-187500.0224,0.344,-0.07,0.924,192,0,0,0,0,0,0,0,0,0,0
 2023-06-27 18:19:02.337,-187500.0224,-187500.0224,-187500.0224,-176681.5769,-187500.0224,-182634.2487,-187500.0224,-187500.0224,0.344,-0.07,0.924,192,0,0,0,0,0,0,0,0,0,0
 2023-06-27 18:19:02.337,-187500.0224,-187500.0224,-187500.0224,-176404.2364,-187249.5264,-182116.3812,-187500.0224,-187500.0224,0.344,-0.07,0.924,192,0,0,0,0,0,0,0,0,0,0
 2023-06-27 18:19:02.337,-187500.0224,-187500.0224,-187500.0224,-175625.6805,-185977.578,-180694.5197,-187500.0224,-187500.0224,0.344,-0.07,0.924,192,0,0,0,0,0,0,0,0,0,0
 2023-06-27 18:19:02.337,-187500.0224,-187500.0224,-187500.0224,-175462.401,-185843.5346,-180405.1316,-187500.0224,-187500.0224,0.344,-0.07,0.924,192,0,0,0,0,0,0,0,0,0,0
 2023-06-27 18:19:02.337,-187500.0224,-187500.0224,-187500.0224,-176127.0748,-187020.7786,-181630.9683,-187500.0224,-187500.0224,0.344,-0.07,0.924,192,0,0,0,0,0,0,0,0,0,0
 2023-06-27 18:19:02.337,-187500.0224,-187500.0224,-187500.0224,-176681.1298,-187500.0224,-182632.8406,-187500.0224,-187500.0224,0.344,-0.074,0.924,192,10,192,253,176,28,224,0,0,0,0
 2023-06-27 18:19:02.337,-187500.0224,-187500.0224,-187500.0224,-176412.3054,-187264.435,-182132.9215,-187500.0224,-187500.0224,0.344,-0.074,0.924,192,0,0,0,0,0,0,0,0,0,0
 2023-06-27 18:19:02.337,-187500.0224,-187500.0224,-187500.0224,-175634.1294,-185990.0726,-180710.8588,-187500.0224,-187500.0224,0.344,-0.074,0.924,192,0,0,0,0,0,0,0,0,0,0
 2023-06-27 18:19:02.337,-187500.0224,-187500.0224,-187500.0224,-175460.7916,-185838.1925,-180402.3377,-187500.0224,-187500.0224,0.344,-0.074,0.924,192,0,0,0,0,0,0,0,0,0,0
 2023-06-27 18:19:02.337,-187500.0224,-187500.0224,-187500.0224,-176115.6754,-187001.7573,-181611.3435,-187500.0224,-187500.0224,0.344,-0.074,0.924,192,0,0,0,0,0,0,0,0,0,0
 2023-06-27 18:19:02.337,-187500.0224,-187500.0224,-187500.0224,-176679.0511,-187500.0224,-182629.5325,-187500.0224,-187500.0224,0.344,-0.074,0.924,192,0,0,0,0,0,0,0,0,0,0
 2023-06-27 18:19:02.337,-187500.0224,-187500.0224,-187500.0224,-176424.6883,-187283.3892,-182153.5968,-187500.0224,-187500.0224,0.344,-0.074,0.924,192,0,0,0,0,0,0,0,0,0,0
 2023-06-27 18:19:02.337,-187500.0224,-187500.0224,-187500.0224,-175642.3996,-186002.2543,-180726.7509,-187500.0224,-187500.0224,0.344,-0.074,0.924,192,0,0,0,0,0,0,0,0,0,0
 2023-06-27 18:19:02.337,-187500.0224,-187500.0224,-187500.0224,-175456.5448,-185829.6318,-180395.9227,-187500.0224,-187500.0224,0.344,-0.074,0.924,192,0,0,0,0,0,0,0,0,0,0
 2023-06-27 18:19:02.337,-187500.0224,-187500.0224,-187500.0224,-176103.2925,-186981.1043,-181589.26,-187500.0224,-187500.0224,0.344,-0.074,0.924,192,0,0,0,0,0,0,0,0,0,0
 2023-06-27 18:19:02.337,-187500.0224,-187500.0224,-187500.0224,-176672.0103,-187500.0224,-182620.8154,-187500.0224,-187500.0224,0.344,-0.068,0.918,192,10,192,253,224,28,176,0,0,0,0
 2023-06-27 18:19:02.337,-187500.0224,-187500.0224,-187500.0224,-176430.1644,-187295.7274,-182167.1867,-187500.0224,-187500.0224,0.344,-0.068,0.918,192,0,0,0,0,0,0,0,0,0,0
 2023-06-27 18:19:02.337,-187500.0224,-187500.0224,-187500.0224,-175652.212,-186016.0677,-180744.1629,-187500.0224,-187500.0224,0.344,-0.068,0.918,192,0,0,0,0,0,0,0,0,0,0
 2023-06-27 18:19:02.337,-187500.0224,-187500.0224,-187500.0224,-175455.539,-185824.5356,-180393.017,-187500.0224,-187500.0224,0.344,-0.068,0.918,192,0,0,0,0,0,0,0,0,0,0
 2023-06-27 18:19:02.814,-187500.0224,-187500.0224,-187500.0224,-176092.6308,-186961.5465,-181568.227,-187500.0224,-187500.0224,0.344,-0.068,0.918,192,0,0,0,0,0,0,0,0,0,0
 2023-06-27 18:19:02.815,-187500.0224,-187500.0224,-187500.0224,-176672.3456,-187500.0224,-182618.8484,-187500.0224,-187500.0224,0.344,-0.068,0.918,192,0,0,0,0,0,0,0,0,0,0
 2023-06-27 18:19:02.815,-187500.0224,-187500.0224,-187500.0224,-176441.005,-187314.1676,-182186.3421,-187500.0224,-187500.0224,0.344,-0.068,0.918,192,0,0,0,0,0,0,0,0,0,0
 2023-06-27 18:19:02.815,-187500.0224,-187500.0224,-187500.0224,-175662.0915,-186031.0881,-180762.536,-187500.0224,-187500.0224,0.344,-0.068,0.918,192,0,0,0,0,0,0,0,0,0,0
 2023-06-27 18:19:02.815,-187500.0224,-187500.0224,-187500.0224,-175454.5555,-185819.9088,-180390.4018,-187500.0224,-187500.0224,0.344,-0.068,0.918,192,0,0,0,0,0,0,0,0,0,0
 2023-06-27 18:19:02.815,-187500.0224,-187500.0224,-187500.0224,-176081.142,-186941.7428,-181546.747,-187500.0224,-187500.0224,0.344,-0.068,0.918,192,0,0,0,0,0,0,0,0,0,0
 2023-06-27 18:19:02.815,-187500.0224,-187500.0224,-187500.0224,-176668.1211,-187500.0224,-182613.4169,-187500.0224,-187500.0224,0.34,-0.066,0.922,192,10,160,253,240,28,208,0,0,0,0
 2023-06-27 18:19:02.815,-187500.0224,-187500.0224,-187500.0224,-176448.7164,-187329.3668,-182202.726,-187500.0224,-187500.0224,0.34,-0.066,0.922,192,0,0,0,0,0,0,0,0,0,0
 2023-06-27 18:19:02.815,-187500.0224,-187500.0224,-187500.0224,-175669.0428,-186042.8227,-180777.8693,-187500.0224,-187500.0224,0.34,-0.066,0.922,192,0,0,0,0,0,0,0,0,0,0
 2023-06-27 18:19:02.815,-187500.0224,-187500.0224,-187500.0224,-175448.9899,-185811.5492,-180384.4339,-187500.0224,-187500.0224,0.34,-0.066,0.922,192,0,0,0,0,0,0,0,0,0,0
 2023-06-27 18:19:02.815,-187500.0224,-187500.0224,-187500.0224,-176068.7367,-186922.565,-181527.0551,-187500.0224,-187500.0224,0.34,-0.066,0.922,192,0,0,0,0,0,0,0,0,0,0
 2023-06-27 18:19:02.815,-187500.0224,-187500.0224,-187500.0224,-176666.6012,-187500.0224,-182611.3382,-187500.0224,-187500.0224,0.34,-0.066,0.922,192,0,0,0,0,0,0,0,0,0,0
 2023-06-27 18:19:02.815,-187500.0224,-187500.0224,-187500.0224,-176458.7747,-187346.4212,-182221.5461,-187500.0224,-187500.0224,0.34,-0.066,0.922,192,0,0,0,0,0,0,0,0,0,0
 2023-06-27 18:19:02.815,-187500.0224,-187500.0224,-187500.0224,-175680.4646,-186058.9607,-180798.0306,-187500.0224,-187500.0224,0.34,-0.066,0.922,192,0,0,0,0,0,0,0,0,0,0
 2023-06-27 18:19:02.815,-187500.0224,-187500.0224,-187500.0224,-175450.0181,-185809.627,-180385.6409,-187500.0224,-187500.0224,0.34,-0.066,0.922,192,0,0,0,0,0,0,0,0,0,0
 2023-06-27 18:19:02.815,-187500.0224,-187500.0224,-187500.0224,-176060.4219,-186906.7176,-181511.4536,-187500.0224,-187500.0224,0.34,-0.066,0.922,192,0,0,0,0,0,0,0,0,0,0
 2023-06-27 18:19:02.815,-187500.0224,-187500.0224,-187500.0224,-176664.1425,-187500.0224,-182608.2984,-187500.0224,-187500.0224,0.338,-0.066,0.922,192,10,144,253,240,28,208,0,0,0,0
 2023-06-27 18:19:02.815,-187500.0224,-187500.0224,-187500.0224,-176466.866,-187360.9051,-182238.3323,-187500.0224,-187500.0224,0.338,-0.066,0.922,192,0,0,0,0,0,0,0,0,0,0
 2023-06-27 18:19:02.815,-187500.0224,-187500.0224,-187500.0224,-175690.5005,-186073.2882,-180816.7614,-187500.0224,-187500.0224,0.338,-0.066,0.922,192,0,0,0,0,0,0,0,0,0,0
 2023-06-27 18:19:02.815,-187500.0224,-187500.0224,-187500.0224,-175451.9404,-185808.8447,-180388.2114,-187500.0224,-187500.0224,0.338,-0.066,0.922,192,0,0,0,0,0,0,0,0,0,0
 2023-06-27 18:19:02.815,-187500.0224,-187500.0224,-187500.0224,-176054.3869,-186894.6924,-181500.2106,-187500.0224,-187500.0224,0.338,-0.066,0.922,192,0,0,0,0,0,0,0,0,0,0
 2023-06-27 18:19:02.815,-187500.0224,-187500.0224,-187500.0224,-176664.7013,-187500.0224,-182609.5501,-187500.0224,-187500.0224,0.338,-0.066,0.922,192,0,0,0,0,0,0,0,0,0,0
 2023-06-27 18:19:02.815,-187500.0224,-187500.0224,-187500.0224,-176476.5443,-187376.9313,-182257.0631,-187500.0224,-187500.0224,0.338,-0.066,0.922,192,0,0,0,0,0,0,0,0,0,0
 2023-06-27 18:19:02.815,-187500.0224,-187500.0224,-187500.0224,-175700.4918,-186086.431,-180834.4863,-187500.0224,-187500.0224,0.338,-0.066,0.922,192,0,0,0,0,0,0,0,0,0,0
 2023-06-27 18:19:02.815,-187500.0224,-187500.0224,-187500.0224,-175447.1571,-185798.3393,-180380.2765,-187500.0224,-187500.0224,0.338,-0.066,0.922,192,0,0,0,0,0,0,0,0,0,0
 2023-06-27 18:19:02.815,-187500.0224,-187500.0224,-187500.0224,-176039.4113,-186869.0773,-181473.0756,-187500.0224,-187500.0224,0.338,-0.066,0.922,192,0,0,0,0,0,0,0,0,0,0
 2023-06-27 18:19:02.815,-187500.0224,-187500.0224,-187500.0224,-176658.7334,-187500.0224,-182600.5423,-187500.0224,-187500.0224,0.34,-0.066,0.922,192,10,160,253,240,28,208,0,0,0,0
 2023-06-27 18:19:02.815,-187500.0224,-187500.0224,-187500.0224,-176484.5015,-187390.9235,-182271.4799,-187500.0224,-187500.0224,0.34,-0.066,0.922,192,0,0,0,0,0,0,0,0,0,0
 2023-06-27 18:19:02.815,-187500.0224,-187500.0224,-187500.0224,-175706.9514,-186096.6904,-180847.4056,-187500.0224,-187500.0224,0.34,-0.066,0.922,192,0,0,0,0,0,0,0,0,0,0
 2023-06-27 18:19:02.815,-187500.0224,-187500.0224,-187500.0224,-175443.5808,-185790.7397,-180374.018,-187500.0224,-187500.0224,0.34,-0.066,0.922,192,0,0,0,0,0,0,0,0,0,0
 2023-06-27 18:19:02.815,-187500.0224,-187500.0224,-187500.0224,-176028.0566,-186849.3631,-181451.4391,-187500.0224,-187500.0224,0.34,-0.066,0.922,192,0,0,0,0,0,0,0,0,0,0
 2023-06-27 18:19:02.815,-187500.0224,-187500.0224,-187500.0224,-176657.2582,-187500.0224,-182595.9379,-187500.0224,-187500.0224,0.34,-0.066,0.922,192,0,0,0,0,0,0,0,0,0,0
 2023-06-27 18:19:02.815,-187500.0224,-187500.0224,-187500.0224,-176493.5316,-187406.1227,-182287.0591,-187500.0224,-187500.0224,0.34,-0.066,0.922,192,0,0,0,0,0,0,0,0,0,0
 2023-06-27 18:19:02.815,-187500.0224,-187500.0224,-187500.0224,-175716.6521,-186110.9285,-180864.2588,-187500.0224,-187500.0224,0.34,-0.066,0.922,192,0,0,0,0,0,0,0,0,0,0
 2023-06-27 18:19:02.815,-187500.0224,-187500.0224,-187500.0224,-175441.6585,-185786.18,-180371.224,-187500.0224,-187500.0224,0.34,-0.066,0.922,192,0,0,0,0,0,0,0,0,0,0
 2023-06-27 18:19:02.815,-187500.0224,-187500.0224,-187500.0224,-176018.6912,-186834.298,-181435.6141,-187500.0224,-187500.0224,0.34,-0.066,0.922,192,0,0,0,0,0,0,0,0,0,0
 2023-06-27 18:19:02.815,-187500.0224,-187500.0224,-187500.0224,-176653.8831,-187500.0224,-182591.3334,-187500.0224,-187500.0224,0.34,-0.07,0.92,192,10,160,253,208,28,192,0,0,0,0
 2023-06-27 18:19:02.815,-187500.0224,-187500.0224,-187500.0224,-176499.6113,-187418.5949,-182300.5149,-187500.0224,-187500.0224,0.34,-0.07,0.92,192,0,0,0,0,0,0,0,0,0,0
 2023-06-27 18:19:02.815,-187500.0224,-187500.0224,-187500.0224,-175723.4023,-186122.2161,-180878.8545,-187500.0224,-187500.0224,0.34,-0.07,0.92,192,0,0,0,0,0,0,0,0,0,0
 2023-06-27 18:19:02.815,-187500.0224,-187500.0224,-187500.0224,-175439.4234,-185779.9215,-180366.709,-187500.0224,-187500.0224,0.34,-0.07,0.92,192,0,0,0,0,0,0,0,0,0,0
 2023-06-27 18:19:02.815,-187500.0224,-187500.0224,-187500.0224,-176003.3802,-186807.9453,-181406.9145,-187500.0224,-187500.0224,0.34,-0.07,0.92,192,0,0,0,0,0,0,0,0,0,0
 2023-06-27 18:19:02.815,-187500.0224,-187500.0224,-187500.0224,-176647.7587,-187500.0224,-182580.5822,-187500.0224,-187500.0224,0.34,-0.07,0.92,192,0,0,0,0,0,0,0,0,0,0
 2023-06-27 18:19:02.815,-187500.0224,-187500.0224,-187500.0224,-176508.0156,-187433.8835,-182315.1552,-187500.0224,-187500.0224,0.34,-0.07,0.92,192,0,0,0,0,0,0,0,0,0,0
 2023-06-27 18:19:02.816,-187500.0224,-187500.0224,-187500.0224,-175734.3323,-186138.8905,-180897.6747,-187500.0224,-187500.0224,0.34,-0.07,0.92,192,0,0,0,0,0,0,0,0,0,0
 2023-06-27 18:19:02.816,-187500.0224,-187500.0224,-187500.0224,-175436.1824,-185774.2665,-180362.641,-187500.0224,-187500.0224,0.34,-0.07,0.92,192,0,0,0,0,0,0,0,0,0,0
 2023-06-27 18:19:02.816,-187500.0224,-187500.0224,-187500.0224,-175988.8516,-186785.8171,-181383.311,-187500.0224,-187500.0224,0.34,-0.07,0.92,192,0,0,0,0,0,0,0,0,0,0
 2023-06-27 18:19:02.816,-187500.0224,-187500.0224,-187500.0224,-176643.4895,-187500.0224,-182573.5638,-187500.0224,-187500.0224,0.34,-0.07,0.92,192,0,0,0,0,0,0,0,0,0,0
 2023-06-27 18:19:02.816,-187500.0224,-187500.0224,-187500.0224,-176512.7765,-187445.1041,-182326.5546,-187500.0224,-187500.0224,0.34,-0.068,0.924,192,10,160,253,224,28,224,0,0,0,0
 2023-06-27 18:19:02.816,-187500.0224,-187500.0224,-187500.0224,-175742.066,-186151.8322,-180913.3879,-187500.0224,-187500.0224,0.34,-0.068,0.924,192,0,0,0,0,0,0,0,0,0,0
 2023-06-27 18:19:02.816,-187500.0224,-187500.0224,-187500.0224,-175433.5449,-185769.0139,-180358.8859,-187500.0224,-187500.0224,0.34,-0.068,0.924,192,0,0,0,0,0,0,0,0,0,0
 2023-06-27 18:19:02.816,-187500.0224,-187500.0224,-187500.0224,-175977.0946,-186766.3487,-181362.211,-187500.0224,-187500.0224,0.34,-0.068,0.924,192,0,0,0,0,0,0,0,0,0,0
 2023-06-27 18:19:02.816,-187500.0224,-187500.0224,-187500.0224,-176636.9628,-187500.0224,-182564.2878,-187500.0224,-187500.0224,0.34,-0.068,0.924,192,0,0,0,0,0,0,0,0,0,0
 2023-06-27 18:19:02.816,-187500.0224,-187500.0224,-187500.0224,-176519.102,-187458.4928,-182340.368,-187500.0224,-187500.0224,0.34,-0.068,0.924,192,0,0,0,0,0,0,0,0,0,0
 2023-06-27 18:19:02.816,-187500.0224,-187500.0224,-187500.0224,-175749.1738,-186165.422,-180930.1965,-187500.0224,-187500.0224,0.34,-0.068,0.924,192,0,0,0,0,0,0,0,0,0,0
 2023-06-27 18:19:02.816,-187500.0224,-187500.0224,-187500.0224,-175430.818,-185765.4152,-180358.0812,-187500.0224,-187500.0224,0.34,-0.068,0.924,192,0,0,0,0,0,0,0,0,0,0
 2023-06-27 18:19:02.816,-187500.0224,-187500.0224,-187500.0224,-175963.5047,-186747.5509,-181343.8155,-187500.0224,-187500.0224,0.34,-0.068,0.924,192,0,0,0,0,0,0,0,0,0,0
 2023-06-27 18:19:02.816,-187500.0224,-187500.0224,-187500.0224,-176627.7539,-187500.0224,-182554.8554,-187500.0224,-187500.0224,0.34,-0.068,0.924,192,0,0,0,0,0,0,0,0,0,0
 2023-06-27 18:19:02.816,-187500.0224,-187500.0224,-187500.0224,-176524.3547,-187469.8698,-182353.712,-187500.0224,-187500.0224,0.342,-0.068,0.918,192,10,176,253,224,28,176,0,0,0,0
 2023-06-27 18:19:02.816,-187500.0224,-187500.0224,-187500.0224,-175760.305,-186181.8953,-180951.1624,-187500.0224,-187500.0224,0.342,-0.068,0.918,192,0,0,0,0,0,0,0,0,0,0
 2023-06-27 18:19:02.816,-187500.0224,-187500.0224,-187500.0224,-175431.332,-185762.8671,-180358.8188,-187500.0224,-187500.0224,0.342,-0.068,0.918,192,0,0,0,0,0,0,0,0,0,0
 2023-06-27 18:19:02.816,-187500.0224,-187500.0224,-187500.0224,-175952.8429,-186727.3449,-181323.2295,-187500.0224,-187500.0224,0.342,-0.068,0.918,192,0,0,0,0,0,0,0,0,0,0
 2023-06-27 18:19:02.816,-187500.0224,-187500.0224,-187500.0224,-176627.2174,-187500.0224,-182552.0837,-187500.0224,-187500.0224,0.342,-0.068,0.918,192,0,0,0,0,0,0,0,0,0,0
 2023-06-27 18:19:02.816,-187500.0224,-187500.0224,-187500.0224,-176535.0388,-187487.9748,-182373.4709,-187500.0224,-187500.0224,0.342,-0.068,0.918,192,0,0,0,0,0,0,0,0,0,0
 2023-06-27 18:19:02.816,-187500.0224,-187500.0224,-187500.0224,-175772.5314,-186200.7825,-180974.8329,-187500.0224,-187500.0224,0.342,-0.068,0.918,192,0,0,0,0,0,0,0,0,0,0
 2023-06-27 18:19:02.816,-187500.0224,-187500.0224,-187500.0224,-175434.0366,-185764.1412,-180364.2503,-187500.0224,-187500.0224,0.342,-0.068,0.918,192,0,0,0,0,0,0,0,0,0,0
 2023-06-27 18:19:02.816,-187500.0224,-187500.0224,-187500.0224,-175948.0597,-186716.102,-181313.4618,-187500.0224,-187500.0224,0.342,-0.068,0.918,192,0,0,0,0,0,0,0,0,0,0
 2023-06-27 18:19:02.816,-187500.0224,-187500.0224,-187500.0224,-176628.3797,-187500.0224,-182553.2013,-187500.0224,-187500.0224,0.342,-0.068,0.918,192,0,0,0,0,0,0,0,0,0,0
 2023-06-27 18:19:02.816,-187500.0224,-187500.0224,-187500.0224,-176547.5335,-187500.0224,-182394.8616,-187500.0224,-187500.0224,0.342,-0.07,0.922,192,10,176,253,208,28,208,0,0,0,0
 2023-06-27 18:19:02.816,-187500.0224,-187500.0224,-187500.0224,-175788.1329,-186221.6367,-181000.895,-187500.0224,-187500.0224,0.342,-0.07,0.922,192,0,0,0,0,0,0,0,0,0,0
 2023-06-27 18:19:02.816,-187500.0224,-187500.0224,-187500.0224,-175440.2057,-185767.7622,-180372.1405,-187500.0224,-187500.0224,0.342,-0.07,0.922,192,0,0,0,0,0,0,0,0,0,0
 2023-06-27 18:19:02.816,-187500.0224,-187500.0224,-187500.0224,-175941.9353,-186701.7074,-181299.939,-187500.0224,-187500.0224,0.342,-0.07,0.922,192,0,0,0,0,0,0,0,0,0,0
 2023-06-27 18:19:02.816,-187500.0224,-187500.0224,-187500.0224,-176627.0386,-187500.0224,-182549.9827,-187500.0224,-187500.0224,0.342,-0.07,0.922,192,0,0,0,0,0,0,0,0,0,0
 2023-06-27 18:19:02.816,-187500.0224,-187500.0224,-187500.0224,-176557.2788,-187500.0224,-182412.4971,-187500.0224,-187500.0224,0.342,-0.07,0.922,192,0,0,0,0,0,0,0,0,0,0
 2023-06-27 18:19:02.816,-187500.0224,-187500.0224,-187500.0224,-175801.4322,-186240.5239,-181024.4314,-187500.0224,-187500.0224,0.342,-0.07,0.922,192,0,0,0,0,0,0,0,0,0,0
 2023-06-27 18:19:02.816,-187500.0224,-187500.0224,-187500.0224,-175438.1493,-185763.0683,-180370.9782,-187500.0224,-187500.0224,0.342,-0.07,0.922,192,0,0,0,0,0,0,0,0,0,0
 2023-06-27 18:19:02.816,-187500.0224,-187500.0224,-187500.0224,-175925.9761,-186677.2099,-181275.6427,-187500.0224,-187500.0224,0.342,-0.07,0.922,192,0,0,0,0,0,0,0,0,0,0
 2023-06-27 18:19:02.816,-187500.0224,-187500.0224,-187500.0224,-176617.2933,-187500.0224,-182537.2198,-187500.0224,-187500.0224,0.342,-0.07,0.922,192,0,0,0,0,0,0,0,0,0,0
 2023-06-27 18:19:02.816,-187500.0224,-187500.0224,-187500.0224,-176559.3575,-187500.0224,-182420.9908,-187500.0224,-187500.0224,0.35,-0.066,0.924,192,10,240,253,240,28,224,0,0,0,0
 2023-06-27 18:19:02.816,-187500.0224,-187500.0224,-187500.0224,-175807.4001,-186251.8562,-181039.72,-187500.0224,-187500.0224,0.35,-0.066,0.924,192,0,0,0,0,0,0,0,0,0,0
 2023-06-27 18:19:02.816,-187500.0224,-187500.0224,-187500.0224,-175437.8811,-185759.6932,-180370.6876,-187500.0224,-187500.0224,0.35,-0.066,0.924,192,0,0,0,0,0,0,0,0,0,0
 2023-06-27 18:19:02.816,-187500.0224,-187500.0224,-187500.0224,-175919.36,-186662.0555,-181260.3764,-187500.0224,-187500.0224,0.35,-0.066,0.924,192,0,0,0,0,0,0,0,0,0,0
 2023-06-27 18:19:02.816,-187500.0224,-187500.0224,-187500.0224,-176616.9803,-187500.0224,-182533.4871,-187500.0224,-187500.0224,0.35,-0.066,0.924,192,0,0,0,0,0,0,0,0,0,0
 2023-06-27 18:19:02.816,-187500.0224,-187500.0224,-187500.0224,-176572.8356,-187500.0224,-182440.7273,-187500.0224,-187500.0224,0.35,-0.066,0.924,192,0,0,0,0,0,0,0,0,0,0
 2023-06-27 18:19:02.816,-187500.0224,-187500.0224,-187500.0224,-175821.1465,-186271.2799,-181062.34,-187500.0224,-187500.0224,0.35,-0.066,0.924,192,0,0,0,0,0,0,0,0,0,0
 2023-06-27 18:19:02.816,-187500.0224,-187500.0224,-187500.0224,-175435.5342,-185755.2452,-180368.4077,-187500.0224,-187500.0224,0.35,-0.066,0.924,192,0,0,0,0,0,0,0,0,0,0
 2023-06-27 18:19:02.816,-187500.0224,-187500.0224,-187500.0224,-175906.396,-186641.7377,-181239.4775,-187500.0224,-187500.0224,0.35,-0.066,0.924,192,0,0,0,0,0,0,0,0,0,0
 2023-06-27 18:19:02.816,-187500.0224,-187500.0224,-187500.0224,-176608.7549,-187500.0224,-182521.3501,-187500.0224,-187500.0224,0.35,-0.066,0.924,192,0,0,0,0,0,0,0,0,0,0
 2023-06-27 18:19:02.816,-187500.0224,-187500.0224,-187500.0224,-176573.238,-187500.0224,-182446.1812,-187500.0224,-187500.0224,0.352,-0.064,0.918,192,11,0,254,0,28,176,0,0,0,0
 2023-06-27 18:19:02.816,-187500.0224,-187500.0224,-187500.0224,-175826.1309,-186281.6064,-181075.5946,-187500.0224,-187500.0224,0.352,-0.064,0.918,192,0,0,0,0,0,0,0,0,0,0
 2023-06-27 18:19:02.816,-187500.0224,-187500.0224,-187500.0224,-175431.0415,-185748.6514,-180363.9597,-187500.0224,-187500.0224,0.352,-0.064,0.918,192,0,0,0,0,0,0,0,0,0,0
 2023-06-27 18:19:02.816,-187500.0224,-187500.0224,-187500.0224,-175892.7168,-186620.4365,-181217.3046,-187500.0224,-187500.0224,0.352,-0.064,0.918,192,0,0,0,0,0,0,0,0,0,0
 2023-06-27 18:19:02.816,-187500.0224,-187500.0224,-187500.0224,-176601.7588,-187500.0224,-182510.9565,-187500.0224,-187500.0224,0.352,-0.064,0.918,192,0,0,0,0,0,0,0,0,0,0
 2023-06-27 18:19:02.816,-187500.0224,-187500.0224,-187500.0224,-176580.7034,-187500.0224,-182459.6816,-187500.0224,-187500.0224,0.352,-0.064,0.918,192,0,0,0,0,0,0,0,0,0,0
 2023-06-27 18:19:02.816,-187500.0224,-187500.0224,-187500.0224,-175840.0784,-186301.7006,-181098.7286,-187500.0224,-187500.0224,0.352,-0.064,0.918,192,0,0,0,0,0,0,0,0,0,0
 2023-06-27 18:19:02.816,-187500.0224,-187500.0224,-187500.0224,-175434.2601,-185749.9478,-180367.7819,-187500.0224,-187500.0224,0.352,-0.064,0.918,192,0,0,0,0,0,0,0,0,0,0
 2023-06-27 18:19:02.816,-187500.0224,-187500.0224,-187500.0224,-175880.6692,-186600.0964,-181196.3163,-187500.0224,-187500.0224,0.352,-0.064,0.918,192,0,0,0,0,0,0,0,0,0,0
 2023-06-27 18:19:02.816,-187500.0224,-187500.0224,-187500.0224,-176593.2875,-187500.0224,-182498.1937,-187500.0224,-187500.0224,0.352,-0.064,0.918,192,0,0,0,0,0,0,0,0,0,0
 2023-06-27 18:19:02.816,-187500.0224,-187500.0224,-187500.0224,-176582.7375,-187500.0224,-182466.8789,-187500.0224,-187500.0224,0.346,-0.072,0.922,192,10,208,253,192,28,208,0,0,0,0
 2023-06-27 18:19:02.816,-187500.0224,-187500.0224,-187500.0224,-175846.091,-186313.6812,-181113.4137,-187500.0224,-187500.0224,0.346,-0.072,0.922,192,0,0,0,0,0,0,0,0,0,0
 2023-06-27 18:19:02.816,-187500.0224,-187500.0224,-187500.0224,-175435.2436,-185749.7914,-180369.8382,-187500.0224,-187500.0224,0.346,-0.072,0.922,192,0,0,0,0,0,0,0,0,0,0
 2023-06-27 18:19:02.816,-187500.0224,-187500.0224,-187500.0224,-175877.5176,-186591.0216,-181187.1745,-187500.0224,-187500.0224,0.346,-0.072,0.922,192,0,0,0,0,0,0,0,0,0,0
 2023-06-27 18:19:02.816,-187500.0224,-187500.0224,-187500.0224,-176595.5897,-187500.0224,-182498.3054,-187500.0224,-187500.0224,0.346,-0.072,0.922,192,0,0,0,0,0,0,0,0,0,0
 2023-06-27 18:19:02.816,-187500.0224,-187500.0224,-187500.0224,-176593.131,-187500.0224,-182483.9556,-187500.0224,-187500.0224,0.346,-0.072,0.922,192,0,0,0,0,0,0,0,0,0,0
 2023-06-27 18:19:02.816,-187500.0224,-187500.0224,-187500.0224,-175858.8539,-186332.7696,-181136.7266,-187500.0224,-187500.0224,0.346,-0.072,0.922,192,0,0,0,0,0,0,0,0,0,0
 2023-06-27 18:19:02.817,-187500.0224,-187500.0224,-187500.0224,-175435.7577,-185748.1597,-180371.7605,-187500.0224,-187500.0224,0.346,-0.072,0.922,192,0,0,0,0,0,0,0,0,0,0
 2023-06-27 18:19:02.817,-187500.0224,-187500.0224,-187500.0224,-175867.5934,-186573.9225,-181170.5671,-187500.0224,-187500.0224,0.346,-0.072,0.922,192,0,0,0,0,0,0,0,0,0,0
 2023-06-27 18:19:02.817,-187500.0224,-187500.0224,-187500.0224,-176589.0406,-187500.0224,-182489.1189,-187500.0224,-187500.0224,0.346,-0.072,0.922,192,0,0,0,0,0,0,0,0,0,0
 2023-06-27 18:19:02.817,-187500.0224,-187500.0224,-187500.0224,-176598.5848,-187500.0224,-182495.7126,-187500.0224,-187500.0224,0.338,-0.064,0.922,192,10,144,254,0,28,208,0,0,0,0
 2023-06-27 18:19:02.817,-187500.0224,-187500.0224,-187500.0224,-175870.8791,-186351.0086,-181159.1901,-187500.0224,-187500.0224,0.338,-0.064,0.922,192,0,0,0,0,0,0,0,0,0,0
 2023-06-27 18:19:02.817,-187500.0224,-187500.0224,-187500.0224,-175438.2387,-185749.5231,-180376.8567,-187500.0224,-187500.0224,0.338,-0.064,0.922,192,0,0,0,0,0,0,0,0,0,0
 2023-06-27 18:19:02.817,-187500.0224,-187500.0224,-187500.0224,-175858.8986,-186558.1869,-181155.8597,-187500.0224,-187500.0224,0.338,-0.064,0.922,192,0,0,0,0,0,0,0,0,0,0
 2023-06-27 18:19:02.817,-187500.0224,-187500.0224,-187500.0224,-176582.7598,-187500.0224,-182480.1111,-187500.0224,-187500.0224,0.338,-0.064,0.922,192,0,0,0,0,0,0,0,0,0,0
 2023-06-27 18:19:02.817,-187500.0224,-187500.0224,-187500.0224,-176602.8317,-187500.0224,-182505.9497,-187500.0224,-187500.0224,0.338,-0.064,0.922,192,0,0,0,0,0,0,0,0,0,0
 2023-06-27 18:19:02.817,-187500.0224,-187500.0224,-187500.0224,-175882.7926,-186368.6888,-181180.9607,-187500.0224,-187500.0224,0.338,-0.064,0.922,192,0,0,0,0,0,0,0,0,0,0
 2023-06-27 18:19:02.817,-187500.0224,-187500.0224,-187500.0224,-175437.5458,-185746.4386,-180377.0355,-187500.0224,-187500.0224,0.338,-0.064,0.922,192,0,0,0,0,0,0,0,0,0,0
 2023-06-27 18:19:02.817,-187500.0224,-187500.0224,-187500.0224,-175844.8393,-186534.9411,-181132.5692,-187500.0224,-187500.0224,0.338,-0.064,0.922,192,0,0,0,0,0,0,0,0,0,0
 2023-06-27 18:19:02.817,-187500.0224,-187500.0224,-187500.0224,-176574.6461,-187500.0224,-182467.6612,-187500.0224,-187500.0224,0.338,-0.064,0.922,192,0,0,0,0,0,0,0,0,0,0
 2023-06-27 18:19:02.817,-187500.0224,-187500.0224,-187500.0224,-176604.5081,-187500.0224,-182513.0799,-187500.0224,-187500.0224,0.346,-0.07,0.92,192,10,208,253,208,28,192,0,0,0,0
 2023-06-27 18:19:02.817,-187500.0224,-187500.0224,-187500.0224,-175888.9617,-186381.3399,-181196.9869,-187500.0224,-187500.0224,0.346,-0.07,0.92,192,0,0,0,0,0,0,0,0,0,0
 2023-06-27 18:19:02.817,-187500.0224,-187500.0224,-187500.0224,-175437.5235,-185745.1645,-180378.8907,-187500.0224,-187500.0224,0.346,-0.07,0.92,192,0,0,0,0,0,0,0,0,0,0
 2023-06-27 18:19:03.295,-187500.0224,-187500.0224,-187500.0224,-175834.4011,-186516.8138,-181114.4419,-187500.0224,-187500.0224,0.346,-0.07,0.92,192,0,0,0,0,0,0,0,0,0,0
 2023-06-27 18:19:03.295,-187500.0224,-187500.0224,-187500.0224,-176567.8959,-187500.0224,-182456.2618,-187500.0224,-187500.0224,0.346,-0.07,0.92,192,0,0,0,0,0,0,0,0,0,0
 2023-06-27 18:19:03.295,-187500.0224,-187500.0224,-187500.0224,-176608.6878,-187500.0224,-182521.4171,-187500.0224,-187500.0224,0.346,-0.07,0.92,192,0,0,0,0,0,0,0,0,0,0
 2023-06-27 18:19:03.295,-187500.0224,-187500.0224,-187500.0224,-175897.5894,-186395.9356,-181214.5553,-187500.0224,-187500.0224,0.346,-0.07,0.92,192,0,0,0,0,0,0,0,0,0,0
 2023-06-27 18:19:03.295,-187500.0224,-187500.0224,-187500.0224,-175436.0706,-185741.8565,-180377.639,-187500.0224,-187500.0224,0.346,-0.07,0.92,192,0,0,0,0,0,0,0,0,0,0
 2023-06-27 18:19:03.295,-187500.0224,-187500.0224,-187500.0224,-175822.1076,-186496.6302,-181093.2971,-187500.0224,-187500.0224,0.346,-0.07,0.92,192,0,0,0,0,0,0,0,0,0,0
 2023-06-27 18:19:03.295,-187500.0224,-187500.0224,-187500.0224,-176559.3575,-187500.0224,-182442.8955,-187500.0224,-187500.0224,0.346,-0.07,0.92,192,0,0,0,0,0,0,0,0,0,0
 2023-06-27 18:19:03.295,-187500.0224,-187500.0224,-187500.0224,-176613.1358,-187500.0224,-182530.0226,-187500.0224,-187500.0224,0.34,-0.068,0.918,192,10,160,253,224,28,176,0,0,0,0
 2023-06-27 18:19:03.296,-187500.0224,-187500.0224,-187500.0224,-175907.2007,-186411.783,-181232.7273,-187500.0224,-187500.0224,0.34,-0.068,0.918,192,0,0,0,0,0,0,0,0,0,0
 2023-06-27 18:19:03.296,-187500.0224,-187500.0224,-187500.0224,-175434.9754,-185738.8837,-180376.8567,-187500.0224,-187500.0224,0.34,-0.068,0.918,192,0,0,0,0,0,0,0,0,0,0
 2023-06-27 18:19:03.296,-187500.0224,-187500.0224,-187500.0224,-175811.0211,-186476.8489,-181072.4877,-187500.0224,-187500.0224,0.34,-0.068,0.918,192,0,0,0,0,0,0,0,0,0,0
 2023-06-27 18:19:03.296,-187500.0224,-187500.0224,-187500.0224,-176555.2895,-187500.0224,-182432.6584,-187500.0224,-187500.0224,0.34,-0.068,0.918,192,0,0,0,0,0,0,0,0,0,0
 2023-06-27 18:19:03.296,-187500.0224,-187500.0224,-187500.0224,-176616.6003,-187500.0224,-182536.7951,-187500.0224,-187500.0224,0.34,-0.068,0.918,192,0,0,0,0,0,0,0,0,0,0
 2023-06-27 18:19:03.296,-187500.0224,-187500.0224,-187500.0224,-175917.2813,-186428.3903,-181251.4134,-187500.0224,-187500.0224,0.34,-0.068,0.918,192,0,0,0,0,0,0,0,0,0,0
 2023-06-27 18:19:03.296,-187500.0224,-187500.0224,-187500.0224,-175434.9754,-185738.4367,-180377.9296,-187500.0224,-187500.0224,0.34,-0.068,0.918,192,0,0,0,0,0,0,0,0,0,0
 2023-06-27 18:19:03.296,-187500.0224,-187500.0224,-187500.0224,-175798.7053,-186457.4029,-181051.7452,-187500.0224,-187500.0224,0.34,-0.068,0.918,192,0,0,0,0,0,0,0,0,0,0
 2023-06-27 18:19:03.296,-187500.0224,-187500.0224,-187500.0224,-176543.8231,-187500.0224,-182415.6934,-187500.0224,-187500.0224,0.34,-0.068,0.918,192,0,0,0,0,0,0,0,0,0,0
 2023-06-27 18:19:03.296,-187500.0224,-187500.0224,-187500.0224,-176617.4274,-187500.0224,-182540.5949,-187500.0224,-187500.0224,0.34,-0.064,0.92,192,10,160,254,0,28,192,0,0,0,0
 2023-06-27 18:19:03.296,-187500.0224,-187500.0224,-187500.0224,-175926.7585,-186443.8354,-181268.6466,-187500.0224,-187500.0224,0.34,-0.064,0.92,192,0,0,0,0,0,0,0,0,0,0
 2023-06-27 18:19:03.296,-187500.0224,-187500.0224,-187500.0224,-175436.5176,-185737.9002,-180378.6225,-187500.0224,-187500.0224,0.34,-0.064,0.92,192,0,0,0,0,0,0,0,0,0,0
 2023-06-27 18:19:03.296,-187500.0224,-187500.0224,-187500.0224,-175786.4789,-186436.2134,-181028.4771,-187500.0224,-187500.0224,0.34,-0.064,0.92,192,0,0,0,0,0,0,0,0,0,0
 2023-06-27 18:19:03.296,-187500.0224,-187500.0224,-187500.0224,-176533.6083,-187500.0224,-182397.1638,-187500.0224,-187500.0224,0.34,-0.064,0.92,192,0,0,0,0,0,0,0,0,0,0
 2023-06-27 18:19:03.296,-187500.0224,-187500.0224,-187500.0224,-176616.8239,-187500.0224,-182540.9079,-187500.0224,-187500.0224,0.34,-0.064,0.92,192,0,0,0,0,0,0,0,0,0,0
 2023-06-27 18:19:03.296,-187500.0224,-187500.0224,-187500.0224,-175928.8595,-186451.9044,-181276.492,-187500.0224,-187500.0224,0.34,-0.064,0.92,192,0,0,0,0,0,0,0,0,0,0
 2023-06-27 18:19:03.296,-187500.0224,-187500.0224,-187500.0224,-175429.5663,-185729.8312,-180370.1288,-187500.0224,-187500.0224,0.34,-0.064,0.92,192,0,0,0,0,0,0,0,0,0,0
 2023-06-27 18:19:03.296,-187500.0224,-187500.0224,-187500.0224,-175772.2632,-186415.2922,-181004.4937,-187500.0224,-187500.0224,0.34,-0.064,0.92,192,0,0,0,0,0,0,0,0,0,0
 2023-06-27 18:19:03.296,-187500.0224,-187500.0224,-187500.0224,-176523.4159,-187500.0224,-182381.4505,-187500.0224,-187500.0224,0.34,-0.064,0.92,192,0,0,0,0,0,0,0,0,0,0
 2023-06-27 18:19:03.296,-187500.0224,-187500.0224,-187500.0224,-176623.6859,-187500.0224,-182552.0837,-187500.0224,-187500.0224,0.338,-0.068,0.92,192,10,144,253,224,28,192,0,0,0,0
 2023-06-27 18:19:03.296,-187500.0224,-187500.0224,-187500.0224,-175943.7011,-186474.4796,-181300.5649,-187500.0224,-187500.0224,0.338,-0.068,0.92,192,0,0,0,0,0,0,0,0,0,0
 2023-06-27 18:19:03.296,-187500.0224,-187500.0224,-187500.0224,-175433.6343,-185734.2122,-180375.985,-187500.0224,-187500.0224,0.338,-0.068,0.92,192,0,0,0,0,0,0,0,0,0,0
 2023-06-27 18:19:03.296,-187500.0224,-187500.0224,-187500.0224,-175762.1602,-186398.9531,-180987.0369,-187500.0224,-187500.0224,0.338,-0.068,0.92,192,0,0,0,0,0,0,0,0,0,0
 2023-06-27 18:19:03.296,-187500.0224,-187500.0224,-187500.0224,-176517.9621,-187500.0224,-182371.057,-187500.0224,-187500.0224,0.338,-0.068,0.92,192,0,0,0,0,0,0,0,0,0,0
 2023-06-27 18:19:03.296,-187500.0224,-187500.0224,-187500.0224,-176620.7801,-187500.0224,-182551.4802,-187500.0224,-187500.0224,0.338,-0.068,0.92,192,0,0,0,0,0,0,0,0,0,0
 2023-06-27 18:19:03.296,-187500.0224,-187500.0224,-187500.0224,-175947.3444,-186483.1521,-181310.1985,-187500.0224,-187500.0224,0.338,-0.068,0.92,192,0,0,0,0,0,0,0,0,0,0
 2023-06-27 18:19:03.296,-187500.0224,-187500.0224,-187500.0224,-175432.2932,-185732.1782,-180374.5768,-187500.0224,-187500.0224,0.338,-0.068,0.92,192,0,0,0,0,0,0,0,0,0,0
 2023-06-27 18:19:03.296,-187500.0224,-187500.0224,-187500.0224,-175754.4265,-186389.0512,-180976.2858,-187500.0224,-187500.0224,0.338,-0.068,0.92,192,0,0,0,0,0,0,0,0,0,0
 2023-06-27 18:19:03.296,-187500.0224,-187500.0224,-187500.0224,-176511.9271,-187500.0224,-182364.1056,-187500.0224,-187500.0224,0.338,-0.068,0.92,192,0,0,0,0,0,0,0,0,0,0
 2023-06-27 18:19:03.296,-187500.0224,-187500.0224,-187500.0224,-176627.3739,-187500.0224,-182561.9185,-187500.0224,-187500.0224,0.344,-0.066,0.922,192,10,192,253,240,28,208,0,0,0,0
 2023-06-27 18:19:03.296,-187500.0224,-187500.0224,-187500.0224,-175956.1287,-186498.1725,-181327.6999,-187500.0224,-187500.0224,0.344,-0.066,0.922,192,0,0,0,0,0,0,0,0,0,0
 2023-06-27 18:19:03.296,-187500.0224,-187500.0224,-187500.0224,-175429.1416,-185728.0655,-180372.3863,-187500.0224,-187500.0224,0.344,-0.066,0.922,192,0,0,0,0,0,0,0,0,0,0
 2023-06-27 18:19:03.296,-187500.0224,-187500.0224,-187500.0224,-175744.1894,-186371.1028,-180957.108,-187500.0224,-187500.0224,0.344,-0.066,0.922,192,0,0,0,0,0,0,0,0,0,0
 2023-06-27 18:19:03.296,-187500.0224,-187500.0224,-187500.0224,-176502.8076,-187500.0224,-182348.7946,-187500.0224,-187500.0224,0.344,-0.066,0.922,192,0,0,0,0,0,0,0,0,0,0
 2023-06-27 18:19:03.296,-187500.0224,-187500.0224,-187500.0224,-176627.8433,-187500.0224,-182565.8971,-187500.0224,-187500.0224,0.344,-0.066,0.922,192,0,0,0,0,0,0,0,0,0,0
 2023-06-27 18:19:03.296,-187500.0224,-187500.0224,-187500.0224,-175969.2491,-186519.3172,-181351.0798,-187500.0224,-187500.0224,0.344,-0.066,0.922,192,0,0,0,0,0,0,0,0,0,0
 2023-06-27 18:19:03.296,-187500.0224,-187500.0224,-187500.0224,-175434.0366,-185734.011,-180381.1929,-187500.0224,-187500.0224,0.344,-0.066,0.922,192,0,0,0,0,0,0,0,0,0,0
 2023-06-27 18:19:03.296,-187500.0224,-187500.0224,-187500.0224,-175736.7239,-186357.8706,-180944.4345,-187500.0224,-187500.0224,0.344,-0.066,0.922,192,0,0,0,0,0,0,0,0,0,0
 2023-06-27 18:19:03.296,-187500.0224,-187500.0224,-187500.0224,-176498.4714,-187500.0224,-182341.3291,-187500.0224,-187500.0224,0.344,-0.066,0.922,192,0,0,0,0,0,0,0,0,0,0
 2023-06-27 18:19:03.296,-187500.0224,-187500.0224,-187500.0224,-176633.7218,-187500.0224,-182577.5871,-187500.0224,-187500.0224,0.346,-0.064,0.928,192,10,208,254,0,29,0,0,0,0,0
 2023-06-27 18:19:03.296,-187500.0224,-187500.0224,-187500.0224,-175979.4415,-186537.2657,-181372.9398,-187500.0224,-187500.0224,0.346,-0.064,0.928,192,0,0,0,0,0,0,0,0,0,0
 2023-06-27 18:19:03.296,-187500.0224,-187500.0224,-187500.0224,-175433.9695,-185733.8769,-180384.7468,-187500.0224,-187500.0224,0.346,-0.064,0.928,192,0,0,0,0,0,0,0,0,0,0
 2023-06-27 18:19:03.296,-187500.0224,-187500.0224,-187500.0224,-175726.5986,-186339.3857,-180926.5084,-187500.0224,-187500.0224,0.346,-0.064,0.928,192,0,0,0,0,0,0,0,0,0,0
 2023-06-27 18:19:03.296,-187500.0224,-187500.0224,-187500.0224,-176492.7493,-187500.0224,-182329.0357,-187500.0224,-187500.0224,0.346,-0.064,0.928,192,0,0,0,0,0,0,0,0,0,0
 2023-06-27 18:19:03.296,-187500.0224,-187500.0224,-187500.0224,-176639.4215,-187500.0224,-182586.0807,-187500.0224,-187500.0224,0.346,-0.064,0.928,192,0,0,0,0,0,0,0,0,0,0
 2023-06-27 18:19:03.296,-187500.0224,-187500.0224,-187500.0224,-175992.9643,-186557.3822,-181395.3586,-187500.0224,-187500.0224,0.346,-0.064,0.928,192,0,0,0,0,0,0,0,0,0,0
 2023-06-27 18:19:03.296,-187500.0224,-187500.0224,-187500.0224,-175440.5857,-185739.7331,-180392.9499,-187500.0224,-187500.0224,0.346,-0.064,0.928,192,0,0,0,0,0,0,0,0,0,0
 2023-06-27 18:19:03.296,-187500.0224,-187500.0224,-187500.0224,-175714.7969,-186318.755,-180904.8272,-187500.0224,-187500.0224,0.346,-0.064,0.928,192,0,0,0,0,0,0,0,0,0,0
 2023-06-27 18:19:03.296,-187500.0224,-187500.0224,-187500.0224,-176478.8242,-187500.0224,-182306.4604,-187500.0224,-187500.0224,0.346,-0.064,0.928,192,0,0,0,0,0,0,0,0,0,0
 2023-06-27 18:19:03.296,-187500.0224,-187500.0224,-187500.0224,-176635.5546,-187500.0224,-182582.9962,-187500.0224,-187500.0224,0.346,-0.062,0.92,192,10,208,254,16,28,192,0,0,0,0
 2023-06-27 18:19:03.296,-187500.0224,-187500.0224,-187500.0224,-175995.5795,-186566.5017,-181405.2381,-187500.0224,-187500.0224,0.346,-0.062,0.92,192,0,0,0,0,0,0,0,0,0,0
 2023-06-27 18:19:03.296,-187500.0224,-187500.0224,-187500.0224,-175436.6071,-185734.7486,-180388.4572,-187500.0224,-187500.0224,0.346,-0.062,0.92,192,0,0,0,0,0,0,0,0,0,0
 2023-06-27 18:19:03.296,-187500.0224,-187500.0224,-187500.0224,-175704.9174,-186301.2312,-180884.9789,-187500.0224,-187500.0224,0.346,-0.062,0.92,192,0,0,0,0,0,0,0,0,0,0
 2023-06-27 18:19:03.296,-187500.0224,-187500.0224,-187500.0224,-176468.3636,-187500.0224,-182287.5955,-187500.0224,-187500.0224,0.346,-0.062,0.92,192,0,0,0,0,0,0,0,0,0,0
 2023-06-27 18:19:03.296,-187500.0224,-187500.0224,-187500.0224,-176636.0464,-187500.0224,-182584.002,-187500.0224,-187500.0224,0.346,-0.062,0.92,192,0,0,0,0,0,0,0,0,0,0
 2023-06-27 18:19:03.297,-187500.0224,-187500.0224,-187500.0224,-176008.387,-186586.0372,-181424.7288,-187500.0224,-187500.0224,0.346,-0.062,0.92,192,0,0,0,0,0,0,0,0,0,0
 2023-06-27 18:19:03.297,-187500.0224,-187500.0224,-187500.0224,-175437.4341,-185734.6369,-180388.0996,-187500.0224,-187500.0224,0.346,-0.062,0.92,192,0,0,0,0,0,0,0,0,0,0
 2023-06-27 18:19:03.297,-187500.0224,-187500.0224,-187500.0224,-175688.3548,-186275.3256,-180855.3181,-187500.0224,-187500.0224,0.346,-0.062,0.92,192,0,0,0,0,0,0,0,0,0,0
 2023-06-27 18:19:03.297,-187500.0224,-187500.0224,-187500.0224,-176452.628,-187500.0224,-182259.7006,-187500.0224,-187500.0224,0.346,-0.062,0.92,192,0,0,0,0,0,0,0,0,0,0
 2023-06-27 18:19:03.297,-187500.0224,-187500.0224,-187500.0224,-176633.1406,-187500.0224,-182579.5317,-187500.0224,-187500.0224,0.348,-0.072,0.922,192,10,224,253,192,28,208,0,0,0,0
 2023-06-27 18:19:03.297,-187500.0224,-187500.0224,-187500.0224,-176012.0974,-186596.9895,-181434.0271,-187500.0224,-187500.0224,0.348,-0.072,0.922,192,0,0,0,0,0,0,0,0,0,0
 2023-06-27 18:19:03.297,-187500.0224,-187500.0224,-187500.0224,-175433.5896,-185729.7642,-180381.6623,-187500.0224,-187500.0224,0.348,-0.072,0.922,192,0,0,0,0,0,0,0,0,0,0
 2023-06-27 18:19:03.297,-187500.0224,-187500.0224,-187500.0224,-175671.8368,-186250.6045,-180825.9479,-187500.0224,-187500.0224,0.348,-0.072,0.922,192,0,0,0,0,0,0,0,0,0,0
 2023-06-27 18:19:03.297,-187500.0224,-187500.0224,-187500.0224,-176438.0099,-187500.0224,-182233.1467,-187500.0224,-187500.0224,0.348,-0.072,0.922,192,0,0,0,0,0,0,0,0,0,0
 2023-06-27 18:19:03.297,-187500.0224,-187500.0224,-187500.0224,-176631.3301,-187500.0224,-182575.2401,-187500.0224,-187500.0224,0.348,-0.072,0.922,192,0,0,0,0,0,0,0,0,0,0
 2023-06-27 18:19:03.297,-187500.0224,-187500.0224,-187500.0224,-176017.8418,-186609.4841,-181443.3925,-187500.0224,-187500.0224,0.348,-0.072,0.922,192,0,0,0,0,0,0,0,0,0,0
 2023-06-27 18:19:03.297,-187500.0224,-187500.0224,-187500.0224,-175427.9793,-185723.4834,-180372.1405,-187500.0224,-187500.0224,0.348,-0.072,0.922,192,0,0,0,0,0,0,0,0,0,0
 2023-06-27 18:19:03.297,-187500.0224,-187500.0224,-187500.0224,-175654.7601,-186225.3247,-180794.5214,-187500.0224,-187500.0224,0.348,-0.072,0.922,192,0,0,0,0,0,0,0,0,0,0
 2023-06-27 18:19:03.297,-187500.0224,-187500.0224,-187500.0224,-176422.9001,-187497.4966,-182205.5199,-187500.0224,-187500.0224,0.348,-0.072,0.922,192,0,0,0,0,0,0,0,0,0,0
 2023-06-27 18:19:03.297,-187500.0224,-187500.0224,-187500.0224,-176626.1892,-187500.0224,-182567.5735,-187500.0224,-187500.0224,0.346,-0.07,0.922,192,10,208,253,208,28,208,0,0,0,0
 2023-06-27 18:19:03.297,-187500.0224,-187500.0224,-187500.0224,-176020.144,-186619.006,-181449.3604,-187500.0224,-187500.0224,0.346,-0.07,0.922,192,0,0,0,0,0,0,0,0,0,0
 2023-06-27 18:19:03.297,-187500.0224,-187500.0224,-187500.0224,-175423.4642,-185718.8789,-180364.0715,-187500.0224,-187500.0224,0.346,-0.07,0.922,192,0,0,0,0,0,0,0,0,0,0
 2023-06-27 18:19:03.297,-187500.0224,-187500.0224,-187500.0224,-175637.5269,-186201.2295,-180764.1677,-187500.0224,-187500.0224,0.346,-0.07,0.922,192,0,0,0,0,0,0,0,0,0,0
 2023-06-27 18:19:03.297,-187500.0224,-187500.0224,-187500.0224,-176404.9964,-187476.3966,-182176.2392,-187500.0224,-187500.0224,0.346,-0.07,0.922,192,0,0,0,0,0,0,0,0,0,0
 2023-06-27 18:19:03.297,-187500.0224,-187500.0224,-187500.0224,-176619.5061,-187500.0224,-182559.5939,-187500.0224,-187500.0224,0.346,-0.07,0.922,192,0,0,0,0,0,0,0,0,0,0
 2023-06-27 18:19:03.297,-187500.0224,-187500.0224,-187500.0224,-176024.145,-186631.0759,-181458.3235,-187500.0224,-187500.0224,0.346,-0.07,0.922,192,0,0,0,0,0,0,0,0,0,0
 2023-06-27 18:19:03.297,-187500.0224,-187500.0224,-187500.0224,-175417.9881,-185714.4085,-180356.6507,-187500.0224,-187500.0224,0.346,-0.07,0.922,192,0,0,0,0,0,0,0,0,0,0
 2023-06-27 18:19:03.297,-187500.0224,-187500.0224,-187500.0224,-175620.4278,-186178.6766,-180736.2504,-187500.0224,-187500.0224,0.346,-0.07,0.922,192,0,0,0,0,0,0,0,0,0,0
 2023-06-27 18:19:03.297,-187500.0224,-187500.0224,-187500.0224,-176393.3958,-187462.8738,-182155.385,-187500.0224,-187500.0224,0.346,-0.07,0.922,192,0,0,0,0,0,0,0,0,0,0
 2023-06-27 18:19:03.297,-187500.0224,-187500.0224,-187500.0224,-176620.8248,-187500.0224,-182561.1362,-187500.0224,-187500.0224,0.346,-0.062,0.92,192,10,208,254,16,28,192,0,0,0,0
 2023-06-27 18:19:03.297,-187500.0224,-187500.0224,-187500.0224,-176028.6377,-186643.6823,-181468.5382,-187500.0224,-187500.0224,0.346,-0.062,0.92,192,0,0,0,0,0,0,0,0,0,0
 2023-06-27 18:19:03.297,-187500.0224,-187500.0224,-187500.0224,-175415.5741,-185712.6651,-180352.3592,-187500.0224,-187500.0224,0.346,-0.062,0.92,192,0,0,0,0,0,0,0,0,0,0
 2023-06-27 18:19:03.297,-187500.0224,-187500.0224,-187500.0224,-175610.6377,-186163.1869,-180715.8432,-187500.0224,-187500.0224,0.346,-0.062,0.92,192,0,0,0,0,0,0,0,0,0,0
 2023-06-27 18:19:03.297,-187500.0224,-187500.0224,-187500.0224,-176383.5611,-187451.005,-182137.2577,-187500.0224,-187500.0224,0.346,-0.062,0.92,192,0,0,0,0,0,0,0,0,0,0
 2023-06-27 18:19:03.297,-187500.0224,-187500.0224,-187500.0224,-176621.6071,-187500.0224,-182561.8514,-187500.0224,-187500.0224,0.346,-0.062,0.92,192,0,0,0,0,0,0,0,0,0,0
 2023-06-27 18:19:03.297,-187500.0224,-187500.0224,-187500.0224,-176040.3053,-186664.2906,-181487.7831,-187500.0224,-187500.0224,0.346,-0.062,0.92,192,0,0,0,0,0,0,0,0,0,0
 2023-06-27 18:19:03.297,-187500.0224,-187500.0224,-187500.0224,-175415.44,-185714.2968,-180353.2532,-187500.0224,-187500.0224,0.346,-0.062,0.92,192,0,0,0,0,0,0,0,0,0,0
 2023-06-27 18:19:03.297,-187500.0224,-187500.0224,-187500.0224,-175596.1091,-186143.6961,-180693.2009,-187500.0224,-187500.0224,0.346,-0.062,0.92,192,0,0,0,0,0,0,0,0,0,0
 2023-06-27 18:19:03.297,-187500.0224,-187500.0224,-187500.0224,-176372.944,-187438.6445,-182120.2033,-187500.0224,-187500.0224,0.346,-0.062,0.92,192,0,0,0,0,0,0,0,0,0,0
 2023-06-27 18:19:03.297,-187500.0224,-187500.0224,-187500.0224,-176620.4896,-187500.0224,-182562.7679,-187500.0224,-187500.0224,0.35,-0.07,0.922,192,10,240,253,208,28,208,0,0,0,0
 2023-06-27 18:19:03.297,-187500.0224,-187500.0224,-187500.0224,-176046.7426,-186678.0369,-181501.06,-187500.0224,-187500.0224,0.35,-0.07,0.922,192,0,0,0,0,0,0,0,0,0,0
 2023-06-27 18:19:03.297,-187500.0224,-187500.0224,-187500.0224,-175418.0551,-185716.3308,-180354.4155,-187500.0224,-187500.0224,0.35,-0.07,0.922,192,0,0,0,0,0,0,0,0,0,0
 2023-06-27 18:19:03.297,-187500.0224,-187500.0224,-187500.0224,-175587.0566,-186127.0217,-180672.4808,-187500.0224,-187500.0224,0.35,-0.07,0.922,192,0,0,0,0,0,0,0,0,0,0
 2023-06-27 18:19:03.297,-187500.0224,-187500.0224,-187500.0224,-176361.9916,-187423.6017,-182098.6339,-187500.0224,-187500.0224,0.35,-0.07,0.922,192,0,0,0,0,0,0,0,0,0,0
 2023-06-27 18:19:03.297,-187500.0224,-187500.0224,-187500.0224,-176622.6577,-187500.0224,-182564.6231,-187500.0224,-187500.0224,0.35,-0.07,0.922,192,0,0,0,0,0,0,0,0,0,0
 2023-06-27 18:19:03.297,-187500.0224,-187500.0224,-187500.0224,-176056.108,-186695.1137,-181516.5498,-187500.0224,-187500.0224,0.35,-0.07,0.922,192,0,0,0,0,0,0,0,0,0,0
 2023-06-27 18:19:03.297,-187500.0224,-187500.0224,-187500.0224,-175417.541,-185717.4037,-180354.2591,-187500.0224,-187500.0224,0.35,-0.07,0.922,192,0,0,0,0,0,0,0,0,0,0
 2023-06-27 18:19:03.297,-187500.0224,-187500.0224,-187500.0224,-175576.1713,-186112.4484,-180654.8677,-187500.0224,-187500.0224,0.35,-0.07,0.922,192,0,0,0,0,0,0,0,0,0,0
 2023-06-27 18:19:03.297,-187500.0224,-187500.0224,-187500.0224,-176354.6379,-187415.3763,-182086.4969,-187500.0224,-187500.0224,0.35,-0.07,0.922,192,0,0,0,0,0,0,0,0,0,0
 2023-06-27 18:19:03.297,-187500.0224,-187500.0224,-187500.0224,-176625.6528,-187500.0224,-182570.3004,-187500.0224,-187500.0224,0.35,-0.068,0.922,192,10,240,253,224,28,208,0,0,0,0
 2023-06-27 18:19:03.297,-187500.0224,-187500.0224,-187500.0224,-176067.8874,-186716.7278,-181539.1027,-187500.0224,-187500.0224,0.35,-0.068,0.922,192,0,0,0,0,0,0,0,0,0,0
 2023-06-27 18:19:03.297,-187500.0224,-187500.0224,-187500.0224,-175421.609,-185723.1481,-180361.5904,-187500.0224,-187500.0224,0.35,-0.068,0.922,192,0,0,0,0,0,0,0,0,0,0
 2023-06-27 18:19:03.297,-187500.0224,-187500.0224,-187500.0224,-175569.9799,-186098.8362,-180639.8473,-187500.0224,-187500.0224,0.35,-0.068,0.922,192,0,0,0,0,0,0,0,0,0,0
 2023-06-27 18:19:03.297,-187500.0224,-187500.0224,-187500.0224,-176340.4892,-187395.9303,-182062.3123,-187500.0224,-187500.0224,0.35,-0.068,0.922,192,0,0,0,0,0,0,0,0,0,0
 2023-06-27 18:19:03.297,-187500.0224,-187500.0224,-187500.0224,-176620.8025,-187500.0224,-182565.4277,-187500.0224,-187500.0224,0.35,-0.068,0.922,192,0,0,0,0,0,0,0,0,0,0
 2023-06-27 18:19:03.297,-187500.0224,-187500.0224,-187500.0224,-176073.1847,-186729.4683,-181551.4408,-187500.0224,-187500.0224,0.35,-0.068,0.922,192,0,0,0,0,0,0,0,0,0,0
 2023-06-27 18:19:03.297,-187500.0224,-187500.0224,-187500.0224,-175418.3457,-185720.4659,-180358.8188,-187500.0224,-187500.0224,0.35,-0.068,0.922,192,0,0,0,0,0,0,0,0,0,0
 2023-06-27 18:19:03.297,-187500.0224,-187500.0224,-187500.0224,-175553.7078,-186076.5962,-180614.8133,-187500.0224,-187500.0224,0.35,-0.068,0.922,192,0,0,0,0,0,0,0,0,0,0
 2023-06-27 18:19:03.297,-187500.0224,-187500.0224,-187500.0224,-176329.0005,-187380.4405,-182041.8828,-187500.0224,-187500.0224,0.35,-0.068,0.922,192,0,0,0,0,0,0,0,0,0,0
 2023-06-27 18:19:03.297,-187500.0224,-187500.0224,-187500.0224,-176623.5741,-187500.0224,-182569.0934,-187500.0224,-187500.0224,0.346,-0.066,0.926,192,10,208,253,240,28,240,0,0,0,0
 2023-06-27 18:19:03.297,-187500.0224,-187500.0224,-187500.0224,-176087.5569,-186752.133,-181573.8373,-187500.0224,-187500.0224,0.346,-0.066,0.926,192,0,0,0,0,0,0,0,0,0,0
 2023-06-27 18:19:03.298,-187500.0224,-187500.0224,-187500.0224,-175425.2077,-185728.9372,-180367.4689,-187500.0224,-187500.0224,0.346,-0.066,0.926,192,0,0,0,0,0,0,0,0,0,0
 2023-06-27 18:19:03.775,-187500.0224,-187500.0224,-187500.0224,-175551.0703,-186070.5612,-180607.2585,-187500.0224,-187500.0224,0.346,-0.066,0.926,192,0,0,0,0,0,0,0,0,0,0
 2023-06-27 18:19:03.775,-187500.0224,-187500.0224,-187500.0224,-176325.5136,-187375.4784,-182033.9479,-187500.0224,-187500.0224,0.346,-0.066,0.926,192,0,0,0,0,0,0,0,0,0,0
 2023-06-27 18:19:03.775,-187500.0224,-187500.0224,-187500.0224,-176624.3117,-187500.0224,-182571.6639,-187500.0224,-187500.0224,0.346,-0.066,0.926,192,0,0,0,0,0,0,0,0,0,0
 2023-06-27 18:19:03.775,-187500.0224,-187500.0224,-187500.0224,-176092.6531,-186764.7617,-181587.4495,-187500.0224,-187500.0224,0.346,-0.066,0.926,192,0,0,0,0,0,0,0,0,0,0
 2023-06-27 18:19:03.775,-187500.0224,-187500.0224,-187500.0224,-175426.1241,-185731.2841,-180371.224,-187500.0224,-187500.0224,0.346,-0.066,0.926,192,0,0,0,0,0,0,0,0,0,0
 2023-06-27 18:19:03.775,-187500.0224,-187500.0224,-187500.0224,-175542.2414,-186055.742,-180591.344,-187500.0224,-187500.0224,0.346,-0.066,0.926,192,0,0,0,0,0,0,0,0,0,0
 2023-06-27 18:19:03.775,-187500.0224,-187500.0224,-187500.0224,-176314.1589,-187359.7205,-182014.3902,-187500.0224,-187500.0224,0.346,-0.066,0.926,192,0,0,0,0,0,0,0,0,0,0
 2023-06-27 18:19:03.775,-187500.0224,-187500.0224,-187500.0224,-176624.3117,-187500.0224,-182573.0944,-187500.0224,-187500.0224,0.346,-0.066,0.926,192,0,0,0,0,0,0,0,0,0,0
 2023-06-27 18:19:03.775,-187500.0224,-187500.0224,-187500.0224,-176103.2925,-186783.7383,-181607.0296,-187500.0224,-187500.0224,0.35,-0.062,0.924,192,10,240,254,16,28,224,0,0,0,0
 2023-06-27 18:19:03.775,-187500.0224,-187500.0224,-187500.0224,-175426.2135,-185732.2676,-180373.3251,-187500.0224,-187500.0224,0.35,-0.062,0.924,192,0,0,0,0,0,0,0,0,0,0
 2023-06-27 18:19:03.775,-187500.0224,-187500.0224,-187500.0224,-175531.1773,-186039.3806,-180573.6861,-187500.0224,-187500.0224,0.35,-0.062,0.924,192,0,0,0,0,0,0,0,0,0,0
 2023-06-27 18:19:03.775,-187500.0224,-187500.0224,-187500.0224,-176305.5982,-187348.2764,-181999.9062,-187500.0224,-187500.0224,0.35,-0.062,0.924,192,0,0,0,0,0,0,0,0,0,0
 2023-06-27 18:19:03.775,-187500.0224,-187500.0224,-187500.0224,-176630.9949,-187500.0224,-182582.4598,-187500.0224,-187500.0224,0.35,-0.062,0.924,192,0,0,0,0,0,0,0,0,0,0
 2023-06-27 18:19:03.775,-187500.0224,-187500.0224,-187500.0224,-176117.8659,-186807.1183,-181632.2647,-187500.0224,-187500.0224,0.35,-0.062,0.924,192,0,0,0,0,0,0,0,0,0,0
 2023-06-27 18:19:03.775,-187500.0224,-187500.0224,-187500.0224,-175434.0143,-185742.4153,-180386.1997,-187500.0224,-187500.0224,0.35,-0.062,0.924,192,0,0,0,0,0,0,0,0,0,0
 2023-06-27 18:19:03.775,-187500.0224,-187500.0224,-187500.0224,-175525.4329,-186027.4894,-180561.9962,-187500.0224,-187500.0224,0.35,-0.062,0.924,192,0,0,0,0,0,0,0,0,0,0
 2023-06-27 18:19:03.775,-187500.0224,-187500.0224,-187500.0224,-176297.3951,-187335.4018,-181984.2377,-187500.0224,-187500.0224,0.35,-0.062,0.924,192,0,0,0,0,0,0,0,0,0,0
 2023-06-27 18:19:03.775,-187500.0224,-187500.0224,-187500.0224,-176630.3914,-187500.0224,-182585.4772,-187500.0224,-187500.0224,0.35,-0.062,0.924,192,0,0,0,0,0,0,0,0,0,0
 2023-06-27 18:19:03.775,-187500.0224,-187500.0224,-187500.0224,-176129.6005,-186829.1571,-181657.0081,-187500.0224,-187500.0224,0.35,-0.062,0.92,192,10,240,254,16,28,192,0,0,0,0
 2023-06-27 18:19:03.775,-187500.0224,-187500.0224,-187500.0224,-175442.6197,-185754.3735,-180402.4047,-187500.0224,-187500.0224,0.35,-0.062,0.92,192,0,0,0,0,0,0,0,0,0,0
 2023-06-27 18:19:03.775,-187500.0224,-187500.0224,-187500.0224,-175523.086,-186021.3874,-180558.3081,-187500.0224,-187500.0224,0.35,-0.062,0.92,192,0,0,0,0,0,0,0,0,0,0
 2023-06-27 18:19:03.775,-187500.0224,-187500.0224,-187500.0224,-176293.1483,-187328.361,-181977.6663,-187500.0224,-187500.0224,0.35,-0.062,0.92,192,0,0,0,0,0,0,0,0,0,0
 2023-06-27 18:19:03.775,-187500.0224,-187500.0224,-187500.0224,-176640.2261,-187500.0224,-182601.3917,-187500.0224,-187500.0224,0.35,-0.062,0.92,192,0,0,0,0,0,0,0,0,0,0
 2023-06-27 18:19:03.775,-187500.0224,-187500.0224,-187500.0224,-176149.2701,-186858.3038,-181691.6086,-187500.0224,-187500.0224,0.35,-0.062,0.92,192,0,0,0,0,0,0,0,0,0,0
 2023-06-27 18:19:03.775,-187500.0224,-187500.0224,-187500.0224,-175453.952,-185768.6786,-180423.2142,-187500.0224,-187500.0224,0.35,-0.062,0.92,192,0,0,0,0,0,0,0,0,0,0
 2023-06-27 18:19:03.775,-187500.0224,-187500.0224,-187500.0224,-175524.9859,-186018.504,-180559.8504,-187500.0224,-187500.0224,0.35,-0.062,0.92,192,0,0,0,0,0,0,0,0,0,0
 2023-06-27 18:19:03.776,-187500.0224,-187500.0224,-187500.0224,-176292.7906,-187323.2871,-181974.2464,-187500.0224,-187500.0224,0.35,-0.062,0.92,192,0,0,0,0,0,0,0,0,0,0
 2023-06-27 18:19:03.776,-187500.0224,-187500.0224,-187500.0224,-176650.3738,-187500.0224,-182617.9096,-187500.0224,-187500.0224,0.35,-0.062,0.92,192,0,0,0,0,0,0,0,0,0,0
 2023-06-27 18:19:03.776,-187500.0224,-187500.0224,-187500.0224,-176167.3079,-186884.7682,-181723.9516,-187500.0224,-187500.0224,0.348,-0.062,0.926,192,10,224,254,16,28,240,0,0,0,0
 2023-06-27 18:19:03.776,-187500.0224,-187500.0224,-187500.0224,-175465.8878,-185783.1402,-180444.6048,-187500.0224,-187500.0224,0.348,-0.062,0.926,192,0,0,0,0,0,0,0,0,0,0
 2023-06-27 18:19:03.776,-187500.0224,-187500.0224,-187500.0224,-175522.5942,-186012.2902,-180558.6881,-187500.0224,-187500.0224,0.348,-0.062,0.926,192,0,0,0,0,0,0,0,0,0,0
 2023-06-27 18:19:03.776,-187500.0224,-187500.0224,-187500.0224,-176285.571,-187312.7818,-181966.8257,-187500.0224,-187500.0224,0.348,-0.062,0.926,192,0,0,0,0,0,0,0,0,0,0
 2023-06-27 18:19:03.776,-187500.0224,-187500.0224,-187500.0224,-176654.2407,-187500.0224,-182627.9903,-187500.0224,-187500.0224,0.348,-0.062,0.926,192,0,0,0,0,0,0,0,0,0,0
 2023-06-27 18:19:03.776,-187500.0224,-187500.0224,-187500.0224,-176181.7472,-186906.7624,-181752.4501,-187500.0224,-187500.0224,0.348,-0.062,0.926,192,0,0,0,0,0,0,0,0,0,0
 2023-06-27 18:19:03.776,-187500.0224,-187500.0224,-187500.0224,-175474.6944,-185792.5949,-180461.1004,-187500.0224,-187500.0224,0.348,-0.062,0.926,192,0,0,0,0,0,0,0,0,0,0
 2023-06-27 18:19:03.776,-187500.0224,-187500.0224,-187500.0224,-175518.3027,-185999.058,-180549.1439,-187500.0224,-187500.0224,0.348,-0.062,0.926,192,0,0,0,0,0,0,0,0,0,0
 2023-06-27 18:19:03.776,-187500.0224,-187500.0224,-187500.0224,-176275.7362,-187293.7828,-181947.1561,-187500.0224,-187500.0224,0.348,-0.062,0.926,192,0,0,0,0,0,0,0,0,0,0
 2023-06-27 18:19:03.776,-187500.0224,-187500.0224,-187500.0224,-176653.5254,-187500.0224,-182627.9232,-187500.0224,-187500.0224,0.348,-0.062,0.926,192,0,0,0,0,0,0,0,0,0,0
 2023-06-27 18:19:03.776,-187500.0224,-187500.0224,-187500.0224,-176191.5149,-186923.6603,-181772.2314,-187500.0224,-187500.0224,0.342,-0.062,0.916,192,10,176,254,16,28,160,0,0,0,0
 2023-06-27 18:19:03.776,-187500.0224,-187500.0224,-187500.0224,-175479.3212,-185798.2276,-180470.5999,-187500.0224,-187500.0224,0.342,-0.062,0.916,192,0,0,0,0,0,0,0,0,0,0
 2023-06-27 18:19:03.776,-187500.0224,-187500.0224,-187500.0224,-175510.3902,-185984.1047,-180535.6435,-187500.0224,-187500.0224,0.342,-0.062,0.916,192,0,0,0,0,0,0,0,0,0,0
 2023-06-27 18:19:03.776,-187500.0224,-187500.0224,-187500.0224,-176263.9792,-187274.7168,-181926.2349,-187500.0224,-187500.0224,0.342,-0.062,0.916,192,0,0,0,0,0,0,0,0,0,0
 2023-06-27 18:19:03.776,-187500.0224,-187500.0224,-187500.0224,-176652.6984,-187500.0224,-182627.8562,-187500.0224,-187500.0224,0.342,-0.062,0.916,192,0,0,0,0,0,0,0,0,0,0
 2023-06-27 18:19:03.776,-187500.0224,-187500.0224,-187500.0224,-176203.853,-186943.7098,-181794.2702,-187500.0224,-187500.0224,0.342,-0.062,0.916,192,0,0,0,0,0,0,0,0,0,0
 2023-06-27 18:19:03.776,-187500.0224,-187500.0224,-187500.0224,-175482.8528,-185803.0109,-180478.2665,-187500.0224,-187500.0224,0.342,-0.062,0.916,192,0,0,0,0,0,0,0,0,0,0
 2023-06-27 18:19:03.776,-187500.0224,-187500.0224,-187500.0224,-175503.8635,-185972.6606,-180524.7805,-187500.0224,-187500.0224,0.342,-0.062,0.916,192,0,0,0,0,0,0,0,0,0,0
 2023-06-27 18:19:03.776,-187500.0224,-187500.0224,-187500.0224,-176254.8821,-187261.1046,-181911.0581,-187500.0224,-187500.0224,0.342,-0.062,0.916,192,0,0,0,0,0,0,0,0,0,0
 2023-06-27 18:19:03.776,-187500.0224,-187500.0224,-187500.0224,-176650.6868,-187500.0224,-182624.861,-187500.0224,-187500.0224,0.342,-0.062,0.916,192,0,0,0,0,0,0,0,0,0,0
 2023-06-27 18:19:03.776,-187500.0224,-187500.0224,-187500.0224,-176211.5197,-186957.4338,-181808.8659,-187500.0224,-187500.0224,0.338,-0.066,0.916,192,10,144,253,240,28,160,0,0,0,0
 2023-06-27 18:19:03.776,-187500.0224,-187500.0224,-187500.0224,-175486.4291,-185807.28,-180483.9886,-187500.0224,-187500.0224,0.338,-0.066,0.916,192,0,0,0,0,0,0,0,0,0,0
 2023-06-27 18:19:03.776,-187500.0224,-187500.0224,-187500.0224,-175496.7109,-185960.3895,-180511.8389,-187500.0224,-187500.0224,0.338,-0.066,0.916,192,0,0,0,0,0,0,0,0,0,0
 2023-06-27 18:19:03.776,-187500.0224,-187500.0224,-187500.0224,-176246.5449,-187248.5876,-181895.8589,-187500.0224,-187500.0224,0.338,-0.066,0.916,192,0,0,0,0,0,0,0,0,0,0
 2023-06-27 18:19:03.776,-187500.0224,-187500.0224,-187500.0224,-176649.7256,-187500.0224,-182623.7211,-187500.0224,-187500.0224,0.338,-0.066,0.916,192,0,0,0,0,0,0,0,0,0,0
 2023-06-27 18:19:03.776,-187500.0224,-187500.0224,-187500.0224,-176219.1193,-186972.7447,-181825.0932,-187500.0224,-187500.0224,0.338,-0.066,0.916,192,0,0,0,0,0,0,0,0,0,0
 2023-06-27 18:19:03.776,-187500.0224,-187500.0224,-187500.0224,-175485.6915,-185807.6377,-180486.1791,-187500.0224,-187500.0224,0.338,-0.066,0.916,192,0,0,0,0,0,0,0,0,0,0
 2023-06-27 18:19:03.776,-187500.0224,-187500.0224,-187500.0224,-175478.8966,-185932.4275,-180482.3569,-187500.0224,-187500.0224,0.338,-0.066,0.916,192,0,0,0,0,0,0,0,0,0,0
 2023-06-27 18:19:03.776,-187500.0224,-187500.0224,-187500.0224,-176218.8287,-187208.3768,-181848.3614,-187500.0224,-187500.0224,0.338,-0.066,0.916,192,0,0,0,0,0,0,0,0,0,0
 2023-06-27 18:19:03.776,-187500.0224,-187500.0224,-187500.0224,-176636.6499,-187500.0224,-182603.3363,-187500.0224,-187500.0224,0.338,-0.066,0.916,192,0,0,0,0,0,0,0,0,0,0
 2023-06-27 18:19:03.776,-187500.0224,-187500.0224,-187500.0224,-176221.578,-186983.0042,-181831.5082,-187500.0224,-187500.0224,0.338,-0.066,0.92,192,10,144,253,240,28,192,0,0,0,0
 2023-06-27 18:19:03.776,-187500.0224,-187500.0224,-187500.0224,-175487.7031,-185812.3539,-180488.6824,-187500.0224,-187500.0224,0.338,-0.066,0.92,192,0,0,0,0,0,0,0,0,0,0
 2023-06-27 18:19:03.776,-187500.0224,-187500.0224,-187500.0224,-175468.0113,-185915.9319,-180461.3686,-187500.0224,-187500.0224,0.338,-0.066,0.92,192,0,0,0,0,0,0,0,0,0,0
 2023-06-27 18:19:03.776,-187500.0224,-187500.0224,-187500.0224,-176200.5897,-187183.7005,-181816.0408,-187500.0224,-187500.0224,0.338,-0.066,0.92,192,0,0,0,0,0,0,0,0,0,0
 2023-06-27 18:19:03.776,-187500.0224,-187500.0224,-187500.0224,-176629.095,-187500.0224,-182590.5958,-187500.0224,-187500.0224,0.338,-0.066,0.92,192,0,0,0,0,0,0,0,0,0,0
 2023-06-27 18:19:03.776,-187500.0224,-187500.0224,-187500.0224,-176227.0094,-186997.0634,-181841.7006,-187500.0224,-187500.0224,0.338,-0.066,0.92,192,0,0,0,0,0,0,0,0,0,0
 2023-06-27 18:19:03.776,-187500.0224,-187500.0224,-187500.0224,-175488.0831,-185815.6843,-180489.9118,-187500.0224,-187500.0224,0.338,-0.066,0.92,192,0,0,0,0,0,0,0,0,0,0
 2023-06-27 18:19:03.776,-187500.0224,-187500.0224,-187500.0224,-175456.0978,-185899.3916,-180440.8274,-187500.0224,-187500.0224,0.338,-0.066,0.92,192,0,0,0,0,0,0,0,0,0,0
 2023-06-27 18:19:03.776,-187500.0224,-187500.0224,-187500.0224,-176186.0387,-187164.2768,-181789.7775,-187500.0224,-187500.0224,0.338,-0.066,0.92,192,0,0,0,0,0,0,0,0,0,0
 2023-06-27 18:19:03.776,-187500.0224,-187500.0224,-187500.0224,-176625.2058,-187500.0224,-182583.5103,-187500.0224,-187500.0224,0.338,-0.066,0.92,192,0,0,0,0,0,0,0,0,0,0
 2023-06-27 18:19:03.776,-187500.0224,-187500.0224,-187500.0224,-176230.8539,-187009.3569,-181851.1107,-187500.0224,-187500.0224,0.34,-0.064,0.924,192,10,160,254,0,28,224,0,0,0,0
 2023-06-27 18:19:03.776,-187500.0224,-187500.0224,-187500.0224,-175488.1502,-185818.8582,-180491.5882,-187500.0224,-187500.0224,0.34,-0.064,0.924,192,0,0,0,0,0,0,0,0,0,0
 2023-06-27 18:19:03.776,-187500.0224,-187500.0224,-187500.0224,-175447.8723,-185887.5899,-180425.7176,-187500.0224,-187500.0224,0.34,-0.064,0.924,192,0,0,0,0,0,0,0,0,0,0
 2023-06-27 18:19:03.776,-187500.0224,-187500.0224,-187500.0224,-176176.271,-187151.3128,-181771.5832,-187500.0224,-187500.0224,0.34,-0.064,0.924,192,0,0,0,0,0,0,0,0,0,0
 2023-06-27 18:19:03.776,-187500.0224,-187500.0224,-187500.0224,-176626.9492,-187500.0224,-182584.8961,-187500.0224,-187500.0224,0.34,-0.064,0.924,192,0,0,0,0,0,0,0,0,0,0
 2023-06-27 18:19:03.776,-187500.0224,-187500.0224,-187500.0224,-176243.0356,-187031.3957,-181872.2107,-187500.0224,-187500.0224,0.34,-0.064,0.924,192,0,0,0,0,0,0,0,0,0,0
 2023-06-27 18:19:03.776,-187500.0224,-187500.0224,-187500.0224,-175495.2133,-185831.107,-180504.8875,-187500.0224,-187500.0224,0.34,-0.064,0.924,192,0,0,0,0,0,0,0,0,0,0
 2023-06-27 18:19:03.776,-187500.0224,-187500.0224,-187500.0224,-175444.5643,-185881.2867,-180418.7438,-187500.0224,-187500.0224,0.34,-0.064,0.924,192,0,0,0,0,0,0,0,0,0,0
 2023-06-27 18:19:03.776,-187500.0224,-187500.0224,-187500.0224,-176168.9173,-187138.4829,-181754.8641,-187500.0224,-187500.0224,0.34,-0.064,0.924,192,0,0,0,0,0,0,0,0,0,0
 2023-06-27 18:19:03.776,-187500.0224,-187500.0224,-187500.0224,-176623.9541,-187500.0224,-182580.8057,-187500.0224,-187500.0224,0.34,-0.064,0.924,192,0,0,0,0,0,0,0,0,0,0
 2023-06-27 18:19:03.776,-187500.0224,-187500.0224,-187500.0224,-176252.5351,-187049.8582,-181890.3603,-187500.0224,-187500.0224,0.34,-0.068,0.928,192,10,160,253,224,29,0,0,0,0,0
 2023-06-27 18:19:03.777,-187500.0224,-187500.0224,-187500.0224,-175501.9189,-185842.4617,-180517.8068,-187500.0224,-187500.0224,0.34,-0.068,0.928,192,0,0,0,0,0,0,0,0,0,0
 2023-06-27 18:19:03.777,-187500.0224,-187500.0224,-187500.0224,-175437.0988,-185869.9767,-180407.3221,-187500.0224,-187500.0224,0.34,-0.068,0.928,192,0,0,0,0,0,0,0,0,0,0
 2023-06-27 18:19:03.777,-187500.0224,-187500.0224,-187500.0224,-176153.6734,-187117.0476,-181730.1207,-187500.0224,-187500.0224,0.34,-0.068,0.928,192,0,0,0,0,0,0,0,0,0,0
 2023-06-27 18:19:03.777,-187500.0224,-187500.0224,-187500.0224,-176622.3671,-187500.0224,-182578.3023,-187500.0224,-187500.0224,0.34,-0.068,0.928,192,0,0,0,0,0,0,0,0,0,0
 2023-06-27 18:19:03.777,-187500.0224,-187500.0224,-187500.0224,-176261.6994,-187066.8008,-181906.99,-187500.0224,-187500.0224,0.34,-0.068,0.928,192,0,0,0,0,0,0,0,0,0,0
 2023-06-27 18:19:03.777,-187500.0224,-187500.0224,-187500.0224,-175508.3115,-185852.52,-180529.072,-187500.0224,-187500.0224,0.34,-0.068,0.928,192,0,0,0,0,0,0,0,0,0,0
 2023-06-27 18:19:03.777,-187500.0224,-187500.0224,-187500.0224,-175434.4166,-185864.0535,-180400.8401,-187500.0224,-187500.0224,0.34,-0.068,0.928,192,0,0,0,0,0,0,0,0,0,0
 2023-06-27 18:19:03.777,-187500.0224,-187500.0224,-187500.0224,-176145.515,-187104.5082,-181714.5862,-187500.0224,-187500.0224,0.34,-0.068,0.928,192,0,0,0,0,0,0,0,0,0,0
 2023-06-27 18:19:03.777,-187500.0224,-187500.0224,-187500.0224,-176623.06,-187500.0224,-182578.5929,-187500.0224,-187500.0224,0.34,-0.068,0.928,192,0,0,0,0,0,0,0,0,0,0
 2023-06-27 18:19:03.777,-187500.0224,-187500.0224,-187500.0224,-176275.8033,-187089.3314,-181929.8782,-187500.0224,-187500.0224,0.344,-0.066,0.924,192,10,192,253,240,28,224,0,0,0,0
 2023-06-27 18:19:03.777,-187500.0224,-187500.0224,-187500.0224,-175517.9451,-185865.8193,-180544.1818,-187500.0224,-187500.0224,0.344,-0.066,0.924,192,0,0,0,0,0,0,0,0,0,0
 2023-06-27 18:19:03.777,-187500.0224,-187500.0224,-187500.0224,-175429.0298,-185854.7998,-180391.5641,-187500.0224,-187500.0224,0.344,-0.066,0.924,192,0,0,0,0,0,0,0,0,0,0
 2023-06-27 18:19:03.777,-187500.0224,-187500.0224,-187500.0224,-176134.8756,-187087.9679,-181694.6932,-187500.0224,-187500.0224,0.344,-0.066,0.924,192,0,0,0,0,0,0,0,0,0,0
 2023-06-27 18:19:03.777,-187500.0224,-187500.0224,-187500.0224,-176618.7238,-187500.0224,-182572.1556,-187500.0224,-187500.0224,0.344,-0.066,0.924,192,0,0,0,0,0,0,0,0,0,0
 2023-06-27 18:19:03.777,-187500.0224,-187500.0224,-187500.0224,-176277.7479,-187099.0097,-181939.0424,-187500.0224,-187500.0224,0.344,-0.066,0.924,192,0,0,0,0,0,0,0,0,0,0
 2023-06-27 18:19:03.777,-187500.0224,-187500.0224,-187500.0224,-175520.1802,-185871.4519,-180550.865,-187500.0224,-187500.0224,0.344,-0.066,0.924,192,0,0,0,0,0,0,0,0,0,0
 2023-06-27 18:19:03.777,-187500.0224,-187500.0224,-187500.0224,-175421.5643,-185843.6463,-180379.3824,-187500.0224,-187500.0224,0.344,-0.066,0.924,192,0,0,0,0,0,0,0,0,0,0
 2023-06-27 18:19:03.777,-187500.0224,-187500.0224,-187500.0224,-176122.068,-187070.8242,-181674.219,-187500.0224,-187500.0224,0.344,-0.066,0.924,192,0,0,0,0,0,0,0,0,0,0
 2023-06-27 18:19:03.777,-187500.0224,-187500.0224,-187500.0224,-176617.1815,-187500.0224,-182570.1439,-187500.0224,-187500.0224,0.344,-0.066,0.924,192,0,0,0,0,0,0,0,0,0,0
 2023-06-27 18:19:03.777,-187500.0224,-187500.0224,-187500.0224,-176289.4826,-187119.6627,-181959.919,-187500.0224,-187500.0224,0.342,-0.072,0.922,192,10,176,253,192,28,208,0,0,0,0
 2023-06-27 18:19:03.777,-187500.0224,-187500.0224,-187500.0224,-175527.8245,-185883.9912,-180565.8183,-187500.0224,-187500.0224,0.342,-0.072,0.922,192,0,0,0,0,0,0,0,0,0,0
 2023-06-27 18:19:03.777,-187500.0224,-187500.0224,-187500.0224,-175420.8267,-185839.1983,-180375.7167,-187500.0224,-187500.0224,0.342,-0.072,0.922,192,0,0,0,0,0,0,0,0,0,0
 2023-06-27 18:19:03.777,-187500.0224,-187500.0224,-187500.0224,-176113.2167,-187054.5074,-181654.9071,-187500.0224,-187500.0224,0.342,-0.072,0.922,192,0,0,0,0,0,0,0,0,0,0
 2023-06-27 18:19:03.777,-187500.0224,-187500.0224,-187500.0224,-176618.5002,-187500.0224,-182570.8145,-187500.0224,-187500.0224,0.342,-0.072,0.922,192,0,0,0,0,0,0,0,0,0,0
 2023-06-27 18:19:03.777,-187500.0224,-187500.0224,-187500.0224,-176300.3232,-187138.5052,-181978.985,-187500.0224,-187500.0224,0.342,-0.072,0.922,192,0,0,0,0,0,0,0,0,0,0
 2023-06-27 18:19:03.777,-187500.0224,-187500.0224,-187500.0224,-175533.1442,-185892.1273,-180575.7201,-187500.0224,-187500.0224,0.342,-0.072,0.922,192,0,0,0,0,0,0,0,0,0,0
 2023-06-27 18:19:03.777,-187500.0224,-187500.0224,-187500.0224,-175409.1368,-185821.3169,-180357.1648,-187500.0224,-187500.0224,0.342,-0.072,0.922,192,0,0,0,0,0,0,0,0,0,0
 2023-06-27 18:19:03.777,-187500.0224,-187500.0224,-187500.0224,-176091.2673,-187023.9078,-181619.5019,-187500.0224,-187500.0224,0.342,-0.072,0.922,192,0,0,0,0,0,0,0,0,0,0
 2023-06-27 18:19:03.777,-187500.0224,-187500.0224,-187500.0224,-176609.716,-187500.0224,-182556.7105,-187500.0224,-187500.0224,0.342,-0.072,0.922,192,0,0,0,0,0,0,0,0,0,0
 2023-06-27 18:19:03.777,-187500.0224,-187500.0224,-187500.0224,-176304.2347,-187148.5635,-181986.6964,-187500.0224,-187500.0224,0.338,-0.072,0.926,192,10,144,253,192,28,240,0,0,0,0
 2023-06-27 18:19:03.777,-187500.0224,-187500.0224,-187500.0224,-175535.3571,-185897.4246,-180580.3246,-187500.0224,-187500.0224,0.338,-0.072,0.926,192,0,0,0,0,0,0,0,0,0,0
 2023-06-27 18:19:03.777,-187500.0224,-187500.0224,-187500.0224,-175396.6868,-185804.1061,-180337.2717,-187500.0224,-187500.0224,0.338,-0.072,0.926,192,0,0,0,0,0,0,0,0,0,0
 2023-06-27 18:19:03.777,-187500.0224,-187500.0224,-187500.0224,-176076.0458,-187000.5279,-181589.6623,-187500.0224,-187500.0224,0.338,-0.072,0.926,192,0,0,0,0,0,0,0,0,0,0
