 Timestamp (Formatted), EXG Channel 0, EXG Channel 1, EXG Channel 2, EXG Channel 3, EXG Channel 4, EXG Channel 5, EXG Channel 6, EXG Channel 7, Accel Channel 0, Accel Channel 1, Accel Channel 2, Other, Other.1, Other.2, Other.3, Other.4, Other.5, Other.6, Analog Channel 0, Analog Channel 1, Analog Channel 2, Other.7
 2023-06-27 18:16:21.034,0.0,0.0,0.0,0.0,0.0,0.0,0.0,0.0,0.342,-0.068,0.922,192,10,176,253,224,28,208,0,0,0,0
 2023-06-27 18:16:21.514,-187500.0224,-187500.0224,-187500.0224,-181045.7103,-187500.0224,-187500.0224,-187500.0224,-187500.0224,0.342,-0.068,0.922,192,0,0,0,0,0,0,0,0,0,0
 2023-06-27 18:16:21.514,-187500.0224,-187500.0224,-187500.0224,-180364.2503,-187500.0224,-186974.2423,-187500.0224,-187500.0224,0.342,-0.068,0.922,192,0,0,0,0,0,0,0,0,0,0
 2023-06-27 18:16:21.514,-187500.0224,-187500.0224,-187500.0224,-179909.7276,-187500.0224,-186151.0052,-187500.0224,-187500.0224,0.342,-0.068,0.922,192,0,0,0,0,0,0,0,0,0,0
 2023-06-27 18:16:21.514,-187500.0224,-187500.0224,-187500.0224,-180278.4643,-187500.0224,-186825.1785,-187500.0224,-187500.0224,0.342,-0.068,0.922,192,0,0,0,0,0,0,0,0,0,0
 2023-06-27 18:16:21.514,-187500.0224,-187500.0224,-187500.0224,-180996.6705,-187500.0224,-187500.0224,-187500.0224,-187500.0224,0.342,-0.068,0.922,192,0,0,0,0,0,0,0,0,0,0
 2023-06-27 18:16:21.514,-187500.0224,-187500.0224,-187500.0224,-181048.8395,-187500.0224,-187500.0224,-187500.0224,-187500.0224,0.342,-0.068,0.922,192,0,0,0,0,0,0,0,0,0,0
 2023-06-27 18:16:21.515,-187500.0224,-187500.0224,-187500.0224,-180366.2619,-187500.0224,-186976.6786,-187500.0224,-187500.0224,0.342,-0.068,0.922,192,0,0,0,0,0,0,0,0,0,0
 2023-06-27 18:16:21.515,-187500.0224,-187500.0224,-187500.0224,-179909.7723,-187500.0224,-186149.8652,-187500.0224,-187500.0224,0.338,-0.064,0.926,192,10,144,254,0,28,240,0,0,0,0
 2023-06-27 18:16:21.515,-187500.0224,-187500.0224,-187500.0224,-180272.8987,-187500.0224,-186817.0201,-187500.0224,-187500.0224,0.338,-0.064,0.926,192,0,0,0,0,0,0,0,0,0,0
 2023-06-27 18:16:21.515,-187500.0224,-187500.0224,-187500.0224,-180991.9767,-187500.0224,-187500.0224,-187500.0224,-187500.0224,0.338,-0.064,0.926,192,0,0,0,0,0,0,0,0,0,0
 2023-06-27 18:16:21.515,-187500.0224,-187500.0224,-187500.0224,-181045.2856,-187500.0224,-187500.0224,-187500.0224,-187500.0224,0.338,-0.064,0.926,192,0,0,0,0,0,0,0,0,0,0
 2023-06-27 18:16:21.515,-187500.0224,-187500.0224,-187500.0224,-180363.6468,-187500.0224,-186974.1752,-187500.0224,-187500.0224,0.338,-0.064,0.926,192,0,0,0,0,0,0,0,0,0,0
 2023-06-27 18:16:21.515,-187500.0224,-187500.0224,-187500.0224,-179903.4244,-187500.0224,-186141.4386,-187500.0224,-187500.0224,0.338,-0.064,0.926,192,0,0,0,0,0,0,0,0,0,0
 2023-06-27 18:16:21.515,-187500.0224,-187500.0224,-187500.0224,-180263.7792,-187500.0224,-186803.3632,-187500.0224,-187500.0224,0.338,-0.064,0.926,192,0,0,0,0,0,0,0,0,0,0
 2023-06-27 18:16:21.515,-187500.0224,-187500.0224,-187500.0224,-180985.07,-187500.0224,-187500.0224,-187500.0224,-187500.0224,0.338,-0.064,0.926,192,0,0,0,0,0,0,0,0,0,0
 2023-06-27 18:16:21.515,-187500.0224,-187500.0224,-187500.0224,-181040.167,-187500.0224,-187500.0224,-187500.0224,-187500.0224,0.338,-0.064,0.926,192,0,0,0,0,0,0,0,0,0,0
 2023-06-27 18:16:21.515,-187500.0224,-187500.0224,-187500.0224,-180361.9034,-187500.0224,-186972.5659,-187500.0224,-187500.0224,0.338,-0.064,0.926,192,0,0,0,0,0,0,0,0,0,0
 2023-06-27 18:16:21.515,-187500.0224,-187500.0224,-187500.0224,-179899.1105,-187500.0224,-186135.7613,-187500.0224,-187500.0224,0.34,-0.068,0.928,192,10,160,253,224,29,0,0,0,0,0
 2023-06-27 18:16:21.515,-187500.0224,-187500.0224,-187500.0224,-180259.8676,-187500.0224,-186796.3894,-187500.0224,-187500.0224,0.34,-0.068,0.928,192,0,0,0,0,0,0,0,0,0,0
 2023-06-27 18:16:21.515,-187500.0224,-187500.0224,-187500.0224,-180982.9913,-187500.0224,-187500.0224,-187500.0224,-187500.0224,0.34,-0.068,0.928,192,0,0,0,0,0,0,0,0,0,0
 2023-06-27 18:16:21.515,-187500.0224,-187500.0224,-187500.0224,-181041.3517,-187500.0224,-187500.0224,-187500.0224,-187500.0224,0.34,-0.068,0.928,192,0,0,0,0,0,0,0,0,0,0
 2023-06-27 18:16:21.515,-187500.0224,-187500.0224,-187500.0224,-180364.1609,-187500.0224,-186976.7904,-187500.0224,-187500.0224,0.34,-0.068,0.928,192,0,0,0,0,0,0,0,0,0,0
 2023-06-27 18:16:21.515,-187500.0224,-187500.0224,-187500.0224,-179902.6868,-187500.0224,-186139.9411,-187500.0224,-187500.0224,0.34,-0.068,0.928,192,0,0,0,0,0,0,0,0,0,0
 2023-06-27 18:16:21.515,-187500.0224,-187500.0224,-187500.0224,-180262.1475,-187500.0224,-186798.2446,-187500.0224,-187500.0224,0.34,-0.068,0.928,192,0,0,0,0,0,0,0,0,0,0
 2023-06-27 18:16:21.515,-187500.0224,-187500.0224,-187500.0224,-180985.8523,-187500.0224,-187500.0224,-187500.0224,-187500.0224,0.34,-0.068,0.928,192,0,0,0,0,0,0,0,0,0,0
 2023-06-27 18:16:21.515,-187500.0224,-187500.0224,-187500.0224,-181046.8726,-187500.0224,-187500.0224,-187500.0224,-187500.0224,0.34,-0.068,0.928,192,0,0,0,0,0,0,0,0,0,0
 2023-06-27 18:16:21.515,-187500.0224,-187500.0224,-187500.0224,-180370.0841,-187500.0224,-186984.3453,-187500.0224,-187500.0224,0.34,-0.068,0.928,192,0,0,0,0,0,0,0,0,0,0
 2023-06-27 18:16:21.515,-187500.0224,-187500.0224,-187500.0224,-179902.9773,-187500.0224,-186139.9858,-187500.0224,-187500.0224,0.336,-0.07,0.924,192,10,128,253,208,28,224,0,0,0,0
 2023-06-27 18:16:21.515,-187500.0224,-187500.0224,-187500.0224,-180259.0183,-187500.0224,-186792.6343,-187500.0224,-187500.0224,0.336,-0.07,0.924,192,0,0,0,0,0,0,0,0,0,0
 2023-06-27 18:16:21.515,-187500.0224,-187500.0224,-187500.0224,-180981.2255,-187500.0224,-187500.0224,-187500.0224,-187500.0224,0.336,-0.07,0.924,192,0,0,0,0,0,0,0,0,0,0
 2023-06-27 18:16:21.515,-187500.0224,-187500.0224,-187500.0224,-181044.9727,-187500.0224,-187500.0224,-187500.0224,-187500.0224,0.336,-0.07,0.924,192,0,0,0,0,0,0,0,0,0,0
 2023-06-27 18:16:21.515,-187500.0224,-187500.0224,-187500.0224,-180371.6487,-187500.0224,-186989.0391,-187500.0224,-187500.0224,0.336,-0.07,0.924,192,0,0,0,0,0,0,0,0,0,0
 2023-06-27 18:16:21.515,-187500.0224,-187500.0224,-187500.0224,-179901.4798,-187500.0224,-186139.1587,-187500.0224,-187500.0224,0.336,-0.07,0.924,192,0,0,0,0,0,0,0,0,0,0
 2023-06-27 18:16:21.515,-187500.0224,-187500.0224,-187500.0224,-180253.8327,-187500.0224,-186785.8618,-187500.0224,-187500.0224,0.336,-0.07,0.924,192,0,0,0,0,0,0,0,0,0,0
 2023-06-27 18:16:21.515,-187500.0224,-187500.0224,-187500.0224,-180979.9738,-187500.0224,-187500.0224,-187500.0224,-187500.0224,0.336,-0.07,0.924,192,0,0,0,0,0,0,0,0,0,0
 2023-06-27 18:16:21.515,-187500.0224,-187500.0224,-187500.0224,-181046.7608,-187500.0224,-187500.0224,-187500.0224,-187500.0224,0.336,-0.07,0.924,192,0,0,0,0,0,0,0,0,0,0
 2023-06-27 18:16:21.515,-187500.0224,-187500.0224,-187500.0224,-180371.5593,-187500.0224,-186991.2296,-187500.0224,-187500.0224,0.336,-0.07,0.924,192,0,0,0,0,0,0,0,0,0,0
 2023-06-27 18:16:21.515,-187500.0224,-187500.0224,-187500.0224,-179900.2728,-187500.0224,-186139.114,-187500.0224,-187500.0224,0.338,-0.072,0.92,192,10,144,253,192,28,192,0,0,0,0
 2023-06-27 18:16:21.515,-187500.0224,-187500.0224,-187500.0224,-180251.2399,-187500.0224,-186781.9726,-187500.0224,-187500.0224,0.338,-0.072,0.92,192,0,0,0,0,0,0,0,0,0,0
 2023-06-27 18:16:21.515,-187500.0224,-187500.0224,-187500.0224,-180977.2022,-187500.0224,-187500.0224,-187500.0224,-187500.0224,0.338,-0.072,0.92,192,0,0,0,0,0,0,0,0,0,0
 2023-06-27 18:16:21.515,-187500.0224,-187500.0224,-187500.0224,-181047.3643,-187500.0224,-187500.0224,-187500.0224,-187500.0224,0.338,-0.072,0.92,192,0,0,0,0,0,0,0,0,0,0
 2023-06-27 18:16:21.515,-187500.0224,-187500.0224,-187500.0224,-180376.2755,-187500.0224,-186999.0751,-187500.0224,-187500.0224,0.338,-0.072,0.92,192,0,0,0,0,0,0,0,0,0,0
 2023-06-27 18:16:21.515,-187500.0224,-187500.0224,-187500.0224,-179903.5808,-187500.0224,-186142.6233,-187500.0224,-187500.0224,0.338,-0.072,0.92,192,0,0,0,0,0,0,0,0,0,0
 2023-06-27 18:16:21.515,-187500.0224,-187500.0224,-187500.0224,-180250.9716,-187500.0224,-186779.2456,-187500.0224,-187500.0224,0.338,-0.072,0.92,192,0,0,0,0,0,0,0,0,0,0
 2023-06-27 18:16:21.515,-187500.0224,-187500.0224,-187500.0224,-180976.9563,-187500.0224,-187500.0224,-187500.0224,-187500.0224,0.338,-0.072,0.92,192,0,0,0,0,0,0,0,0,0,0
 2023-06-27 18:16:21.515,-187500.0224,-187500.0224,-187500.0224,-181048.0349,-187500.0224,-187500.0224,-187500.0224,-187500.0224,0.338,-0.072,0.92,192,0,0,0,0,0,0,0,0,0,0
 2023-06-27 18:16:21.515,-187500.0224,-187500.0224,-187500.0224,-180377.0131,-187500.0224,-187001.7573,-187500.0224,-187500.0224,0.338,-0.072,0.92,192,0,0,0,0,0,0,0,0,0,0
 2023-06-27 18:16:21.515,-187500.0224,-187500.0224,-187500.0224,-179903.6255,-187500.0224,-186143.1374,-187500.0224,-187500.0224,0.34,-0.068,0.926,192,10,160,253,224,28,240,0,0,0,0
 2023-06-27 18:16:21.515,-187500.0224,-187500.0224,-187500.0224,-180249.2506,-187500.0224,-186776.1164,-187500.0224,-187500.0224,0.34,-0.068,0.926,192,0,0,0,0,0,0,0,0,0,0
 2023-06-27 18:16:21.516,-187500.0224,-187500.0224,-187500.0224,-180974.8999,-187500.0224,-187500.0224,-187500.0224,-187500.0224,0.34,-0.068,0.926,192,0,0,0,0,0,0,0,0,0,0
 2023-06-27 18:16:21.516,-187500.0224,-187500.0224,-187500.0224,-181052.4158,-187500.0224,-187500.0224,-187500.0224,-187500.0224,0.34,-0.068,0.926,192,0,0,0,0,0,0,0,0,0,0
 2023-06-27 18:16:21.516,-187500.0224,-187500.0224,-187500.0224,-180383.8528,-187500.0224,-187012.4414,-187500.0224,-187500.0224,0.34,-0.068,0.926,192,0,0,0,0,0,0,0,0,0,0
 2023-06-27 18:16:21.516,-187500.0224,-187500.0224,-187500.0224,-179905.1902,-187500.0224,-186146.2666,-187500.0224,-187500.0224,0.34,-0.068,0.926,192,0,0,0,0,0,0,0,0,0,0
 2023-06-27 18:16:21.516,-187500.0224,-187500.0224,-187500.0224,-180246.4789,-187500.0224,-186773.7695,-187500.0224,-187500.0224,0.34,-0.068,0.926,192,0,0,0,0,0,0,0,0,0,0
 2023-06-27 18:16:21.516,-187500.0224,-187500.0224,-187500.0224,-180973.8494,-187500.0224,-187500.0224,-187500.0224,-187500.0224,0.34,-0.068,0.926,192,0,0,0,0,0,0,0,0,0,0
 2023-06-27 18:16:21.516,-187500.0224,-187500.0224,-187500.0224,-181052.8405,-187500.0224,-187500.0224,-187500.0224,-187500.0224,0.34,-0.068,0.926,192,0,0,0,0,0,0,0,0,0,0
 2023-06-27 18:16:21.516,-187500.0224,-187500.0224,-187500.0224,-180384.8586,-187500.0224,-187015.8389,-187500.0224,-187500.0224,0.34,-0.068,0.926,192,0,0,0,0,0,0,0,0,0,0
 2023-06-27 18:16:21.516,-187500.0224,-187500.0224,-187500.0224,-179902.5079,-187500.0224,-186143.8526,-187500.0224,-187500.0224,0.342,-0.068,0.924,192,10,176,253,224,28,224,0,0,0,0
 2023-06-27 18:16:21.516,-187500.0224,-187500.0224,-187500.0224,-180244.3555,-187500.0224,-186769.2097,-187500.0224,-187500.0224,0.342,-0.068,0.924,192,0,0,0,0,0,0,0,0,0,0
 2023-06-27 18:16:21.516,-187500.0224,-187500.0224,-187500.0224,-180975.0564,-187500.0224,-187500.0224,-187500.0224,-187500.0224,0.342,-0.068,0.924,192,0,0,0,0,0,0,0,0,0,0
 2023-06-27 18:16:21.516,-187500.0224,-187500.0224,-187500.0224,-181053.2875,-187500.0224,-187500.0224,-187500.0224,-187500.0224,0.342,-0.068,0.924,192,0,0,0,0,0,0,0,0,0,0
 2023-06-27 18:16:21.516,-187500.0224,-187500.0224,-187500.0224,-180388.5243,-187500.0224,-187021.0468,-187500.0224,-187500.0224,0.342,-0.068,0.924,192,0,0,0,0,0,0,0,0,0,0
 2023-06-27 18:16:21.516,-187500.0224,-187500.0224,-187500.0224,-179906.0619,-187500.0224,-186147.2054,-187500.0224,-187500.0224,0.342,-0.068,0.924,192,0,0,0,0,0,0,0,0,0,0
 2023-06-27 18:16:21.516,-187500.0224,-187500.0224,-187500.0224,-180244.3555,-187500.0224,-186766.4381,-187500.0224,-187500.0224,0.342,-0.068,0.924,192,0,0,0,0,0,0,0,0,0,0
 2023-06-27 18:16:21.516,-187500.0224,-187500.0224,-187500.0224,-180974.2964,-187500.0224,-187500.0224,-187500.0224,-187500.0224,0.342,-0.068,0.924,192,0,0,0,0,0,0,0,0,0,0
 2023-06-27 18:16:21.516,-187500.0224,-187500.0224,-187500.0224,-181059.0096,-187500.0224,-187500.0224,-187500.0224,-187500.0224,0.342,-0.068,0.924,192,0,0,0,0,0,0,0,0,0,0
 2023-06-27 18:16:21.516,-187500.0224,-187500.0224,-187500.0224,-180393.464,-187500.0224,-187028.1994,-187500.0224,-187500.0224,0.342,-0.068,0.924,192,0,0,0,0,0,0,0,0,0,0
 2023-06-27 18:16:21.516,-187500.0224,-187500.0224,-187500.0224,-179905.2125,-187500.0224,-186146.4901,-187500.0224,-187500.0224,0.346,-0.068,0.916,192,10,208,253,224,28,160,0,0,0,0
 2023-06-27 18:16:21.516,-187500.0224,-187500.0224,-187500.0224,-180239.0805,-187500.0224,-186760.4031,-187500.0224,-187500.0224,0.346,-0.068,0.916,192,0,0,0,0,0,0,0,0,0,0
 2023-06-27 18:16:21.516,-187500.0224,-187500.0224,-187500.0224,-180969.0214,-187500.0224,-187500.0224,-187500.0224,-187500.0224,0.346,-0.068,0.916,192,0,0,0,0,0,0,0,0,0,0
 2023-06-27 18:16:21.516,-187500.0224,-187500.0224,-187500.0224,-181054.5839,-187500.0224,-187500.0224,-187500.0224,-187500.0224,0.346,-0.068,0.916,192,0,0,0,0,0,0,0,0,0,0
 2023-06-27 18:16:21.516,-187500.0224,-187500.0224,-187500.0224,-180391.877,-187500.0224,-187028.5347,-187500.0224,-187500.0224,0.346,-0.068,0.916,192,0,0,0,0,0,0,0,0,0,0
 2023-06-27 18:16:21.516,-187500.0224,-187500.0224,-187500.0224,-179906.0172,-187500.0224,-186147.0266,-187500.0224,-187500.0224,0.346,-0.068,0.916,192,0,0,0,0,0,0,0,0,0,0
 2023-06-27 18:16:21.516,-187500.0224,-187500.0224,-187500.0224,-180241.3827,-187500.0224,-186759.3973,-187500.0224,-187500.0224,0.346,-0.068,0.916,192,0,0,0,0,0,0,0,0,0,0
 2023-06-27 18:16:21.516,-187500.0224,-187500.0224,-187500.0224,-180971.9495,-187500.0224,-187500.0224,-187500.0224,-187500.0224,0.346,-0.068,0.916,192,0,0,0,0,0,0,0,0,0,0
 2023-06-27 18:16:21.516,-187500.0224,-187500.0224,-187500.0224,-181056.9756,-187500.0224,-187500.0224,-187500.0224,-187500.0224,0.346,-0.068,0.916,192,0,0,0,0,0,0,0,0,0,0
 2023-06-27 18:16:21.516,-187500.0224,-187500.0224,-187500.0224,-180394.6934,-187500.0224,-187031.5521,-187500.0224,-187500.0224,0.346,-0.068,0.916,192,0,0,0,0,0,0,0,0,0,0
 2023-06-27 18:16:21.516,-187500.0224,-187500.0224,-187500.0224,-179905.2349,-187500.0224,-186145.3055,-187500.0224,-187500.0224,0.348,-0.066,0.914,192,10,224,253,240,28,144,0,0,0,0
 2023-06-27 18:16:21.516,-187500.0224,-187500.0224,-187500.0224,-180235.5713,-187500.0224,-186750.0766,-187500.0224,-187500.0224,0.348,-0.066,0.914,192,0,0,0,0,0,0,0,0,0,0
 2023-06-27 18:16:21.516,-187500.0224,-187500.0224,-187500.0224,-180966.2722,-187500.0224,-187500.0224,-187500.0224,-187500.0224,0.348,-0.066,0.914,192,0,0,0,0,0,0,0,0,0,0
 2023-06-27 18:16:21.516,-187500.0224,-187500.0224,-187500.0224,-181054.0028,-187500.0224,-187500.0224,-187500.0224,-187500.0224,0.348,-0.066,0.914,192,0,0,0,0,0,0,0,0,0,0
 2023-06-27 18:16:21.516,-187500.0224,-187500.0224,-187500.0224,-180393.5311,-187500.0224,-187031.5521,-187500.0224,-187500.0224,0.348,-0.066,0.914,192,0,0,0,0,0,0,0,0,0,0
 2023-06-27 18:16:21.516,-187500.0224,-187500.0224,-187500.0224,-179901.9045,-187500.0224,-186141.2151,-187500.0224,-187500.0224,0.348,-0.066,0.914,192,0,0,0,0,0,0,0,0,0,0
 2023-06-27 18:16:21.516,-187500.0224,-187500.0224,-187500.0224,-180230.341,-187500.0224,-186742.2535,-187500.0224,-187500.0224,0.348,-0.066,0.914,192,0,0,0,0,0,0,0,0,0,0
 2023-06-27 18:16:21.516,-187500.0224,-187500.0224,-187500.0224,-180963.6123,-187500.0224,-187500.0224,-187500.0224,-187500.0224,0.348,-0.066,0.914,192,0,0,0,0,0,0,0,0,0,0
 2023-06-27 18:16:21.516,-187500.0224,-187500.0224,-187500.0224,-181053.8687,-187500.0224,-187500.0224,-187500.0224,-187500.0224,0.348,-0.066,0.914,192,0,0,0,0,0,0,0,0,0,0
 2023-06-27 18:16:21.516,-187500.0224,-187500.0224,-187500.0224,-180395.1627,-187500.0224,-187033.1168,-187500.0224,-187500.0224,0.348,-0.066,0.914,192,0,0,0,0,0,0,0,0,0,0
 2023-06-27 18:16:21.516,-187500.0224,-187500.0224,-187500.0224,-179901.1221,-187500.0224,-186138.3317,-187500.0224,-187500.0224,0.344,-0.058,0.91,192,10,192,254,48,28,112,0,0,0,0
 2023-06-27 18:16:21.516,-187500.0224,-187500.0224,-187500.0224,-180225.2224,-187500.0224,-186732.687,-187500.0224,-187500.0224,0.344,-0.058,0.91,192,0,0,0,0,0,0,0,0,0,0
 2023-06-27 18:16:21.516,-187500.0224,-187500.0224,-187500.0224,-180957.2421,-187500.0224,-187500.0224,-187500.0224,-187500.0224,0.344,-0.058,0.91,192,0,0,0,0,0,0,0,0,0,0
 2023-06-27 18:16:21.516,-187500.0224,-187500.0224,-187500.0224,-181050.9853,-187500.0224,-187500.0224,-187500.0224,-187500.0224,0.344,-0.058,0.91,192,0,0,0,0,0,0,0,0,0,0
 2023-06-27 18:16:21.516,-187500.0224,-187500.0224,-187500.0224,-180394.8945,-187500.0224,-187032.8485,-187500.0224,-187500.0224,0.344,-0.058,0.91,192,0,0,0,0,0,0,0,0,0,0
 2023-06-27 18:16:21.516,-187500.0224,-187500.0224,-187500.0224,-179899.7363,-187500.0224,-186135.8954,-187500.0224,-187500.0224,0.344,-0.058,0.91,192,0,0,0,0,0,0,0,0,0,0
 2023-06-27 18:16:21.516,-187500.0224,-187500.0224,-187500.0224,-180224.239,-187500.0224,-186729.0436,-187500.0224,-187500.0224,0.344,-0.058,0.91,192,0,0,0,0,0,0,0,0,0,0
 2023-06-27 18:16:21.516,-187500.0224,-187500.0224,-187500.0224,-180956.9515,-187500.0224,-187500.0224,-187500.0224,-187500.0224,0.344,-0.058,0.91,192,0,0,0,0,0,0,0,0,0,0
 2023-06-27 18:16:21.516,-187500.0224,-187500.0224,-187500.0224,-181054.3157,-187500.0224,-187500.0224,-187500.0224,-187500.0224,0.344,-0.058,0.91,192,0,0,0,0,0,0,0,0,0,0
 2023-06-27 18:16:21.516,-187500.0224,-187500.0224,-187500.0224,-180399.499,-187500.0224,-187039.3753,-187500.0224,-187500.0224,0.344,-0.058,0.91,192,0,0,0,0,0,0,0,0,0,0
 2023-06-27 18:16:21.516,-187500.0224,-187500.0224,-187500.0224,-179899.5799,-187500.0224,-186135.2695,-187500.0224,-187500.0224,0.346,-0.064,0.914,192,10,208,254,0,28,144,0,0,0,0
 2023-06-27 18:16:21.516,-187500.0224,-187500.0224,-187500.0224,-180218.584,-187500.0224,-186721.0194,-187500.0224,-187500.0224,0.346,-0.064,0.914,192,0,0,0,0,0,0,0,0,0,0
 2023-06-27 18:16:21.516,-187500.0224,-187500.0224,-187500.0224,-180952.5706,-187500.0224,-187500.0224,-187500.0224,-187500.0224,0.346,-0.064,0.914,192,0,0,0,0,0,0,0,0,0,0
 2023-06-27 18:16:21.516,-187500.0224,-187500.0224,-187500.0224,-181052.9075,-187500.0224,-187500.0224,-187500.0224,-187500.0224,0.346,-0.064,0.914,192,0,0,0,0,0,0,0,0,0,0
 2023-06-27 18:16:21.516,-187500.0224,-187500.0224,-187500.0224,-180400.3707,-187500.0224,-187041.6104,-187500.0224,-187500.0224,0.346,-0.064,0.914,192,0,0,0,0,0,0,0,0,0,0
 2023-06-27 18:16:21.516,-187500.0224,-187500.0224,-187500.0224,-179902.128,-187500.0224,-186137.2141,-187500.0224,-187500.0224,0.346,-0.064,0.914,192,0,0,0,0,0,0,0,0,0,0
 2023-06-27 18:16:21.516,-187500.0224,-187500.0224,-187500.0224,-180219.3886,-187500.0224,-186718.4713,-187500.0224,-187500.0224,0.346,-0.064,0.914,192,0,0,0,0,0,0,0,0,0,0
 2023-06-27 18:16:21.516,-187500.0224,-187500.0224,-187500.0224,-180952.2129,-187500.0224,-187500.0224,-187500.0224,-187500.0224,0.346,-0.064,0.914,192,0,0,0,0,0,0,0,0,0,0
 2023-06-27 18:16:21.516,-187500.0224,-187500.0224,-187500.0224,-181053.9804,-187500.0224,-187500.0224,-187500.0224,-187500.0224,0.346,-0.064,0.914,192,0,0,0,0,0,0,0,0,0,0
 2023-06-27 18:16:21.516,-187500.0224,-187500.0224,-187500.0224,-180404.3493,-187500.0224,-187047.3548,-187500.0224,-187500.0224,0.346,-0.064,0.914,192,0,0,0,0,0,0,0,0,0,0
 2023-06-27 18:16:21.516,-187500.0224,-187500.0224,-187500.0224,-179901.3457,-187500.0224,-186136.7001,-187500.0224,-187500.0224,0.338,-0.068,0.916,192,10,144,253,224,28,160,0,0,0,0
 2023-06-27 18:16:21.516,-187500.0224,-187500.0224,-187500.0224,-180216.3711,-187500.0224,-186714.2021,-187500.0224,-187500.0224,0.338,-0.068,0.916,192,0,0,0,0,0,0,0,0,0,0
 2023-06-27 18:16:21.516,-187500.0224,-187500.0224,-187500.0224,-180952.9282,-187500.0224,-187500.0224,-187500.0224,-187500.0224,0.338,-0.068,0.916,192,0,0,0,0,0,0,0,0,0,0
 2023-06-27 18:16:21.516,-187500.0224,-187500.0224,-187500.0224,-181055.3215,-187500.0224,-187500.0224,-187500.0224,-187500.0224,0.338,-0.068,0.916,192,0,0,0,0,0,0,0,0,0,0
 2023-06-27 18:16:21.516,-187500.0224,-187500.0224,-187500.0224,-180406.741,-187500.0224,-187052.0934,-187500.0224,-187500.0224,0.338,-0.068,0.916,192,0,0,0,0,0,0,0,0,0,0
 2023-06-27 18:16:21.516,-187500.0224,-187500.0224,-187500.0224,-179903.3126,-187500.0224,-186140.1869,-187500.0224,-187500.0224,0.338,-0.068,0.916,192,0,0,0,0,0,0,0,0,0,0
 2023-06-27 18:16:21.516,-187500.0224,-187500.0224,-187500.0224,-180217.0864,-187500.0224,-186714.7609,-187500.0224,-187500.0224,0.338,-0.068,0.916,192,0,0,0,0,0,0,0,0,0,0
 2023-06-27 18:16:21.516,-187500.0224,-187500.0224,-187500.0224,-180952.6823,-187500.0224,-187500.0224,-187500.0224,-187500.0224,0.338,-0.068,0.916,192,0,0,0,0,0,0,0,0,0,0
 2023-06-27 18:16:21.516,-187500.0224,-187500.0224,-187500.0224,-181058.8754,-187500.0224,-187500.0224,-187500.0224,-187500.0224,0.338,-0.068,0.916,192,0,0,0,0,0,0,0,0,0,0
 2023-06-27 18:16:21.516,-187500.0224,-187500.0224,-187500.0224,-180411.4572,-187500.0224,-187059.5142,-187500.0224,-187500.0224,0.338,-0.068,0.916,192,0,0,0,0,0,0,0,0,0,0
 2023-06-27 18:16:21.516,-187500.0224,-187500.0224,-187500.0224,-179904.3631,-187500.0224,-186141.6621,-187500.0224,-187500.0224,0.346,-0.07,0.922,192,10,208,253,208,28,208,0,0,0,0
 2023-06-27 18:16:21.516,-187500.0224,-187500.0224,-187500.0224,-180213.1078,-187500.0224,-186707.9212,-187500.0224,-187500.0224,0.346,-0.07,0.922,192,0,0,0,0,0,0,0,0,0,0
 2023-06-27 18:16:21.516,-187500.0224,-187500.0224,-187500.0224,-180949.7542,-187500.0224,-187500.0224,-187500.0224,-187500.0224,0.346,-0.07,0.922,192,0,0,0,0,0,0,0,0,0,0
 2023-06-27 18:16:21.994,-187500.0224,-187500.0224,-187500.0224,-181059.993,-187500.0224,-187500.0224,-187500.0224,-187500.0224,0.346,-0.07,0.922,192,0,0,0,0,0,0,0,0,0,0
 2023-06-27 18:16:21.994,-187500.0224,-187500.0224,-187500.0224,-180412.5748,-187500.0224,-187062.5764,-187500.0224,-187500.0224,0.346,-0.07,0.922,192,0,0,0,0,0,0,0,0,0,0
 2023-06-27 18:16:21.994,-187500.0224,-187500.0224,-187500.0224,-179902.2844,-187500.0224,-186139.7175,-187500.0224,-187500.0224,0.346,-0.07,0.922,192,0,0,0,0,0,0,0,0,0,0
 2023-06-27 18:16:21.994,-187500.0224,-187500.0224,-187500.0224,-180211.2749,-187500.0224,-186705.0379,-187500.0224,-187500.0224,0.346,-0.07,0.922,192,0,0,0,0,0,0,0,0,0,0
 2023-06-27 18:16:21.994,-187500.0224,-187500.0224,-187500.0224,-180946.7815,-187500.0224,-187500.0224,-187500.0224,-187500.0224,0.346,-0.07,0.922,192,0,0,0,0,0,0,0,0,0,0
 2023-06-27 18:16:21.994,-187500.0224,-187500.0224,-187500.0224,-181058.2272,-187500.0224,-187500.0224,-187500.0224,-187500.0224,0.346,-0.07,0.922,192,0,0,0,0,0,0,0,0,0,0
 2023-06-27 18:16:21.994,-187500.0224,-187500.0224,-187500.0224,-180412.5971,-187500.0224,-187064.6774,-187500.0224,-187500.0224,0.346,-0.07,0.922,192,0,0,0,0,0,0,0,0,0,0
 2023-06-27 18:16:21.994,-187500.0224,-187500.0224,-187500.0224,-179904.7655,-187500.0224,-186144.2549,-187500.0224,-187500.0224,0.344,-0.068,0.92,192,10,192,253,224,28,192,0,0,0,0
 2023-06-27 18:16:21.994,-187500.0224,-187500.0224,-187500.0224,-180214.5607,-187500.0224,-186710.5364,-187500.0224,-187500.0224,0.344,-0.068,0.92,192,0,0,0,0,0,0,0,0,0,0
 2023-06-27 18:16:21.994,-187500.0224,-187500.0224,-187500.0224,-180951.8776,-187500.0224,-187500.0224,-187500.0224,-187500.0224,0.344,-0.068,0.92,192,0,0,0,0,0,0,0,0,0,0
 2023-06-27 18:16:21.994,-187500.0224,-187500.0224,-187500.0224,-181067.9503,-187500.0224,-187500.0224,-187500.0224,-187500.0224,0.344,-0.068,0.92,192,0,0,0,0,0,0,0,0,0,0
 2023-06-27 18:16:21.994,-187500.0224,-187500.0224,-187500.0224,-180423.3707,-187500.0224,-187078.8931,-187500.0224,-187500.0224,0.344,-0.068,0.92,192,0,0,0,0,0,0,0,0,0,0
 2023-06-27 18:16:21.994,-187500.0224,-187500.0224,-187500.0224,-179910.2193,-187500.0224,-186149.9546,-187500.0224,-187500.0224,0.344,-0.068,0.92,192,0,0,0,0,0,0,0,0,0,0
 2023-06-27 18:16:21.994,-187500.0224,-187500.0224,-187500.0224,-180211.8114,-187500.0224,-186704.1661,-187500.0224,-187500.0224,0.344,-0.068,0.92,192,0,0,0,0,0,0,0,0,0,0
 2023-06-27 18:16:21.994,-187500.0224,-187500.0224,-187500.0224,-180948.1226,-187500.0224,-187500.0224,-187500.0224,-187500.0224,0.344,-0.068,0.92,192,0,0,0,0,0,0,0,0,0,0
 2023-06-27 18:16:21.994,-187500.0224,-187500.0224,-187500.0224,-181064.0834,-187500.0224,-187500.0224,-187500.0224,-187500.0224,0.344,-0.068,0.92,192,0,0,0,0,0,0,0,0,0,0
 2023-06-27 18:16:21.994,-187500.0224,-187500.0224,-187500.0224,-180419.6603,-187500.0224,-187077.2168,-187500.0224,-187500.0224,0.344,-0.068,0.92,192,0,0,0,0,0,0,0,0,0,0
 2023-06-27 18:16:21.994,-187500.0224,-187500.0224,-187500.0224,-179904.8996,-187500.0224,-186145.6407,-187500.0224,-187500.0224,0.344,-0.064,0.922,192,10,192,254,0,28,208,0,0,0,0
 2023-06-27 18:16:21.994,-187500.0224,-187500.0224,-187500.0224,-180207.2293,-187500.0224,-186699.2488,-187500.0224,-187500.0224,0.344,-0.064,0.922,192,0,0,0,0,0,0,0,0,0,0
 2023-06-27 18:16:21.994,-187500.0224,-187500.0224,-187500.0224,-180945.3509,-187500.0224,-187500.0224,-187500.0224,-187500.0224,0.344,-0.064,0.922,192,0,0,0,0,0,0,0,0,0,0
 2023-06-27 18:16:21.994,-187500.0224,-187500.0224,-187500.0224,-181061.2671,-187500.0224,-187500.0224,-187500.0224,-187500.0224,0.344,-0.064,0.922,192,0,0,0,0,0,0,0,0,0,0
 2023-06-27 18:16:21.994,-187500.0224,-187500.0224,-187500.0224,-180419.9061,-187500.0224,-187080.1001,-187500.0224,-187500.0224,0.344,-0.064,0.922,192,0,0,0,0,0,0,0,0,0,0
 2023-06-27 18:16:21.994,-187500.0224,-187500.0224,-187500.0224,-179907.2689,-187500.0224,-186149.4405,-187500.0224,-187500.0224,0.344,-0.064,0.922,192,0,0,0,0,0,0,0,0,0,0
 2023-06-27 18:16:21.994,-187500.0224,-187500.0224,-187500.0224,-180206.447,-187500.0224,-186698.1982,-187500.0224,-187500.0224,0.344,-0.064,0.922,192,0,0,0,0,0,0,0,0,0,0
 2023-06-27 18:16:21.994,-187500.0224,-187500.0224,-187500.0224,-180947.452,-187500.0224,-187500.0224,-187500.0224,-187500.0224,0.344,-0.064,0.922,192,0,0,0,0,0,0,0,0,0,0
 2023-06-27 18:16:21.994,-187500.0224,-187500.0224,-187500.0224,-181069.2243,-187500.0224,-187500.0224,-187500.0224,-187500.0224,0.344,-0.064,0.922,192,0,0,0,0,0,0,0,0,0,0
 2023-06-27 18:16:21.994,-187500.0224,-187500.0224,-187500.0224,-180429.808,-187500.0224,-187092.4383,-187500.0224,-187500.0224,0.344,-0.064,0.922,192,0,0,0,0,0,0,0,0,0,0
 2023-06-27 18:16:21.995,-187500.0224,-187500.0224,-187500.0224,-179912.2757,-187500.0224,-186155.8555,-187500.0224,-187500.0224,0.348,-0.064,0.92,192,10,224,254,0,28,192,0,0,0,0
 2023-06-27 18:16:21.995,-187500.0224,-187500.0224,-187500.0224,-180210.135,-187500.0224,-186703.0933,-187500.0224,-187500.0224,0.348,-0.064,0.92,192,0,0,0,0,0,0,0,0,0,0
 2023-06-27 18:16:21.995,-187500.0224,-187500.0224,-187500.0224,-180950.6036,-187500.0224,-187500.0224,-187500.0224,-187500.0224,0.348,-0.064,0.92,192,0,0,0,0,0,0,0,0,0,0
 2023-06-27 18:16:21.995,-187500.0224,-187500.0224,-187500.0224,-181071.236,-187500.0224,-187500.0224,-187500.0224,-187500.0224,0.348,-0.064,0.92,192,0,0,0,0,0,0,0,0,0,0
 2023-06-27 18:16:21.995,-187500.0224,-187500.0224,-187500.0224,-180427.1034,-187500.0224,-187092.0807,-187500.0224,-187500.0224,0.348,-0.064,0.92,192,0,0,0,0,0,0,0,0,0,0
 2023-06-27 18:16:21.995,-187500.0224,-187500.0224,-187500.0224,-179908.0735,-187500.0224,-186153.3968,-187500.0224,-187500.0224,0.348,-0.064,0.92,192,0,0,0,0,0,0,0,0,0,0
 2023-06-27 18:16:21.995,-187500.0224,-187500.0224,-187500.0224,-180206.4023,-187500.0224,-186699.964,-187500.0224,-187500.0224,0.348,-0.064,0.92,192,0,0,0,0,0,0,0,0,0,0
 2023-06-27 18:16:21.995,-187500.0224,-187500.0224,-187500.0224,-180947.0273,-187500.0224,-187500.0224,-187500.0224,-187500.0224,0.348,-0.064,0.92,192,0,0,0,0,0,0,0,0,0,0
 2023-06-27 18:16:21.995,-187500.0224,-187500.0224,-187500.0224,-181070.6772,-187500.0224,-187500.0224,-187500.0224,-187500.0224,0.348,-0.064,0.92,192,0,0,0,0,0,0,0,0,0,0
 2023-06-27 18:16:21.995,-187500.0224,-187500.0224,-187500.0224,-180431.4396,-187500.0224,-187099.5685,-187500.0224,-187500.0224,0.348,-0.064,0.92,192,0,0,0,0,0,0,0,0,0,0
 2023-06-27 18:16:21.995,-187500.0224,-187500.0224,-187500.0224,-179912.4321,-187500.0224,-186159.6776,-187500.0224,-187500.0224,0.348,-0.062,0.916,192,10,224,254,16,28,160,0,0,0,0
 2023-06-27 18:16:21.995,-187500.0224,-187500.0224,-187500.0224,-180207.1399,-187500.0224,-186700.7463,-187500.0224,-187500.0224,0.348,-0.062,0.916,192,0,0,0,0,0,0,0,0,0,0
 2023-06-27 18:16:21.995,-187500.0224,-187500.0224,-187500.0224,-180946.8932,-187500.0224,-187500.0224,-187500.0224,-187500.0224,0.348,-0.062,0.916,192,0,0,0,0,0,0,0,0,0,0
 2023-06-27 18:16:21.995,-187500.0224,-187500.0224,-187500.0224,-181072.8006,-187500.0224,-187500.0224,-187500.0224,-187500.0224,0.348,-0.062,0.916,192,0,0,0,0,0,0,0,0,0,0
 2023-06-27 18:16:21.995,-187500.0224,-187500.0224,-187500.0224,-180435.083,-187500.0224,-187105.6035,-187500.0224,-187500.0224,0.348,-0.062,0.916,192,0,0,0,0,0,0,0,0,0,0
 2023-06-27 18:16:21.995,-187500.0224,-187500.0224,-187500.0224,-179912.7898,-187500.0224,-186160.6611,-187500.0224,-187500.0224,0.348,-0.062,0.916,192,0,0,0,0,0,0,0,0,0,0
 2023-06-27 18:16:21.995,-187500.0224,-187500.0224,-187500.0224,-180204.5694,-187500.0224,-186695.5607,-187500.0224,-187500.0224,0.348,-0.062,0.916,192,0,0,0,0,0,0,0,0,0,0
 2023-06-27 18:16:21.995,-187500.0224,-187500.0224,-187500.0224,-180943.4734,-187500.0224,-187500.0224,-187500.0224,-187500.0224,0.348,-0.062,0.916,192,0,0,0,0,0,0,0,0,0,0
 2023-06-27 18:16:21.995,-187500.0224,-187500.0224,-187500.0224,-181068.5091,-187500.0224,-187500.0224,-187500.0224,-187500.0224,0.348,-0.062,0.916,192,0,0,0,0,0,0,0,0,0,0
 2023-06-27 18:16:21.995,-187500.0224,-187500.0224,-187500.0224,-180433.876,-187500.0224,-187104.1283,-187500.0224,-187500.0224,0.348,-0.062,0.916,192,0,0,0,0,0,0,0,0,0,0
 2023-06-27 18:16:21.995,-187500.0224,-187500.0224,-187500.0224,-179912.3204,-187500.0224,-186159.0965,-187500.0224,-187500.0224,0.348,-0.062,0.916,192,0,0,0,0,0,0,0,0,0,0
 2023-06-27 18:16:21.995,-187500.0224,-187500.0224,-187500.0224,-180201.686,-187500.0224,-186689.7716,-187500.0224,-187500.0224,0.34,-0.062,0.918,192,10,160,254,16,28,176,0,0,0,0
 2023-06-27 18:16:21.995,-187500.0224,-187500.0224,-187500.0224,-180940.7465,-187500.0224,-187500.0224,-187500.0224,-187500.0224,0.34,-0.062,0.918,192,0,0,0,0,0,0,0,0,0,0
 2023-06-27 18:16:21.995,-187500.0224,-187500.0224,-187500.0224,-181068.5538,-187500.0224,-187500.0224,-187500.0224,-187500.0224,0.34,-0.062,0.918,192,0,0,0,0,0,0,0,0,0,0
 2023-06-27 18:16:21.995,-187500.0224,-187500.0224,-187500.0224,-180432.6913,-187500.0224,-187103.3683,-187500.0224,-187500.0224,0.34,-0.062,0.918,192,0,0,0,0,0,0,0,0,0,0
 2023-06-27 18:16:21.995,-187500.0224,-187500.0224,-187500.0224,-179908.9453,-187500.0224,-186155.5202,-187500.0224,-187500.0224,0.34,-0.062,0.918,192,0,0,0,0,0,0,0,0,0,0
 2023-06-27 18:16:21.995,-187500.0224,-187500.0224,-187500.0224,-180198.0651,-187500.0224,-186684.6084,-187500.0224,-187500.0224,0.34,-0.062,0.918,192,0,0,0,0,0,0,0,0,0,0
 2023-06-27 18:16:21.995,-187500.0224,-187500.0224,-187500.0224,-180939.6959,-187500.0224,-187500.0224,-187500.0224,-187500.0224,0.34,-0.062,0.918,192,0,0,0,0,0,0,0,0,0,0
 2023-06-27 18:16:21.995,-187500.0224,-187500.0224,-187500.0224,-181069.3361,-187500.0224,-187500.0224,-187500.0224,-187500.0224,0.34,-0.062,0.918,192,0,0,0,0,0,0,0,0,0,0
 2023-06-27 18:16:21.995,-187500.0224,-187500.0224,-187500.0224,-180431.5737,-187500.0224,-187102.9213,-187500.0224,-187500.0224,0.34,-0.062,0.918,192,0,0,0,0,0,0,0,0,0,0
 2023-06-27 18:16:21.995,-187500.0224,-187500.0224,-187500.0224,-179906.6654,-187500.0224,-186152.7263,-187500.0224,-187500.0224,0.34,-0.062,0.918,192,0,0,0,0,0,0,0,0,0,0
 2023-06-27 18:16:21.995,-187500.0224,-187500.0224,-187500.0224,-180195.2487,-187500.0224,-186679.9145,-187500.0224,-187500.0224,0.342,-0.058,0.92,192,10,176,254,48,28,192,0,0,0,0
 2023-06-27 18:16:21.995,-187500.0224,-187500.0224,-187500.0224,-180934.4433,-187500.0224,-187500.0224,-187500.0224,-187500.0224,0.342,-0.058,0.92,192,0,0,0,0,0,0,0,0,0,0
 2023-06-27 18:16:21.995,-187500.0224,-187500.0224,-187500.0224,-181063.5693,-187500.0224,-187500.0224,-187500.0224,-187500.0224,0.342,-0.058,0.92,192,0,0,0,0,0,0,0,0,0,0
 2023-06-27 18:16:21.995,-187500.0224,-187500.0224,-187500.0224,-180431.1267,-187500.0224,-187102.2731,-187500.0224,-187500.0224,0.342,-0.058,0.92,192,0,0,0,0,0,0,0,0,0,0
 2023-06-27 18:16:21.995,-187500.0224,-187500.0224,-187500.0224,-179907.5594,-187500.0224,-186151.6757,-187500.0224,-187500.0224,0.342,-0.058,0.92,192,0,0,0,0,0,0,0,0,0,0
 2023-06-27 18:16:21.995,-187500.0224,-187500.0224,-187500.0224,-180191.1584,-187500.0224,-186672.2702,-187500.0224,-187500.0224,0.342,-0.058,0.92,192,0,0,0,0,0,0,0,0,0,0
 2023-06-27 18:16:21.995,-187500.0224,-187500.0224,-187500.0224,-180933.0351,-187500.0224,-187500.0224,-187500.0224,-187500.0224,0.342,-0.058,0.92,192,0,0,0,0,0,0,0,0,0,0
 2023-06-27 18:16:21.995,-187500.0224,-187500.0224,-187500.0224,-181066.1174,-187500.0224,-187500.0224,-187500.0224,-187500.0224,0.342,-0.058,0.92,192,0,0,0,0,0,0,0,0,0,0
 2023-06-27 18:16:21.995,-187500.0224,-187500.0224,-187500.0224,-180432.7137,-187500.0224,-187104.9329,-187500.0224,-187500.0224,0.342,-0.058,0.92,192,0,0,0,0,0,0,0,0,0,0
 2023-06-27 18:16:21.995,-187500.0224,-187500.0224,-187500.0224,-179905.5478,-187500.0224,-186149.1276,-187500.0224,-187500.0224,0.342,-0.058,0.92,192,0,0,0,0,0,0,0,0,0,0
 2023-06-27 18:16:21.995,-187500.0224,-187500.0224,-187500.0224,-180189.5043,-187500.0224,-186669.2751,-187500.0224,-187500.0224,0.344,-0.064,0.936,192,10,192,254,0,29,64,0,0,0,0
 2023-06-27 18:16:21.995,-187500.0224,-187500.0224,-187500.0224,-180932.6775,-187500.0224,-187500.0224,-187500.0224,-187500.0224,0.344,-0.064,0.936,192,0,0,0,0,0,0,0,0,0,0
 2023-06-27 18:16:21.995,-187500.0224,-187500.0224,-187500.0224,-181067.2126,-187500.0224,-187500.0224,-187500.0224,-187500.0224,0.344,-0.064,0.936,192,0,0,0,0,0,0,0,0,0,0
 2023-06-27 18:16:21.995,-187500.0224,-187500.0224,-187500.0224,-180434.8818,-187500.0224,-187108.5763,-187500.0224,-187500.0224,0.344,-0.064,0.936,192,0,0,0,0,0,0,0,0,0,0
 2023-06-27 18:16:21.995,-187500.0224,-187500.0224,-187500.0224,-179903.8044,-187500.0224,-186146.2442,-187500.0224,-187500.0224,0.344,-0.064,0.936,192,0,0,0,0,0,0,0,0,0,0
 2023-06-27 18:16:21.995,-187500.0224,-187500.0224,-187500.0224,-180186.8445,-187500.0224,-186664.38,-187500.0224,-187500.0224,0.344,-0.064,0.936,192,0,0,0,0,0,0,0,0,0,0
 2023-06-27 18:16:21.995,-187500.0224,-187500.0224,-187500.0224,-180934.1527,-187500.0224,-187500.0224,-187500.0224,-187500.0224,0.344,-0.064,0.936,192,0,0,0,0,0,0,0,0,0,0
 2023-06-27 18:16:21.995,-187500.0224,-187500.0224,-187500.0224,-181071.5712,-187500.0224,-187500.0224,-187500.0224,-187500.0224,0.344,-0.064,0.936,192,0,0,0,0,0,0,0,0,0,0
 2023-06-27 18:16:21.995,-187500.0224,-187500.0224,-187500.0224,-180437.6311,-187500.0224,-187115.3488,-187500.0224,-187500.0224,0.344,-0.064,0.936,192,0,0,0,0,0,0,0,0,0,0
 2023-06-27 18:16:21.995,-187500.0224,-187500.0224,-187500.0224,-179903.4914,-187500.0224,-186146.4678,-187500.0224,-187500.0224,0.344,-0.064,0.936,192,0,0,0,0,0,0,0,0,0,0
 2023-06-27 18:16:21.995,-187500.0224,-187500.0224,-187500.0224,-180183.9835,-187500.0224,-186661.452,-187500.0224,-187500.0224,0.344,-0.07,0.93,192,10,192,253,208,29,16,0,0,0,0
 2023-06-27 18:16:21.995,-187500.0224,-187500.0224,-187500.0224,-180934.7562,-187500.0224,-187500.0224,-187500.0224,-187500.0224,0.344,-0.07,0.93,192,0,0,0,0,0,0,0,0,0,0
 2023-06-27 18:16:21.995,-187500.0224,-187500.0224,-187500.0224,-181075.9075,-187500.0224,-187500.0224,-187500.0224,-187500.0224,0.344,-0.07,0.93,192,0,0,0,0,0,0,0,0,0,0
 2023-06-27 18:16:21.995,-187500.0224,-187500.0224,-187500.0224,-180440.9838,-187500.0224,-187121.2944,-187500.0224,-187500.0224,0.344,-0.07,0.93,192,0,0,0,0,0,0,0,0,0,0
 2023-06-27 18:16:21.995,-187500.0224,-187500.0224,-187500.0224,-179902.195,-187500.0224,-186144.8584,-187500.0224,-187500.0224,0.344,-0.07,0.93,192,0,0,0,0,0,0,0,0,0,0
 2023-06-27 18:16:21.995,-187500.0224,-187500.0224,-187500.0224,-180180.6531,-187500.0224,-186657.4286,-187500.0224,-187500.0224,0.344,-0.07,0.93,192,0,0,0,0,0,0,0,0,0,0
 2023-06-27 18:16:21.995,-187500.0224,-187500.0224,-187500.0224,-180931.314,-187500.0224,-187500.0224,-187500.0224,-187500.0224,0.344,-0.07,0.93,192,0,0,0,0,0,0,0,0,0,0
 2023-06-27 18:16:21.995,-187500.0224,-187500.0224,-187500.0224,-181075.8628,-187500.0224,-187500.0224,-187500.0224,-187500.0224,0.344,-0.07,0.93,192,0,0,0,0,0,0,0,0,0,0
 2023-06-27 18:16:21.995,-187500.0224,-187500.0224,-187500.0224,-180443.1743,-187500.0224,-187126.1447,-187500.0224,-187500.0224,0.344,-0.07,0.93,192,0,0,0,0,0,0,0,0,0,0
 2023-06-27 18:16:21.995,-187500.0224,-187500.0224,-187500.0224,-179900.6751,-187500.0224,-186142.9362,-187500.0224,-187500.0224,0.344,-0.07,0.93,192,0,0,0,0,0,0,0,0,0,0
 2023-06-27 18:16:21.996,-187500.0224,-187500.0224,-187500.0224,-180177.725,-187500.0224,-186651.6619,-187500.0224,-187500.0224,0.344,-0.07,0.918,192,10,192,253,208,28,176,0,0,0,0
 2023-06-27 18:16:21.996,-187500.0224,-187500.0224,-187500.0224,-180933.5045,-187500.0224,-187500.0224,-187500.0224,-187500.0224,0.344,-0.07,0.918,192,0,0,0,0,0,0,0,0,0,0
 2023-06-27 18:16:21.996,-187500.0224,-187500.0224,-187500.0224,-181078.6344,-187500.0224,-187500.0224,-187500.0224,-187500.0224,0.344,-0.07,0.918,192,0,0,0,0,0,0,0,0,0,0
 2023-06-27 18:16:21.996,-187500.0224,-187500.0224,-187500.0224,-180442.4367,-187500.0224,-187126.8153,-187500.0224,-187500.0224,0.344,-0.07,0.918,192,0,0,0,0,0,0,0,0,0,0
 2023-06-27 18:16:21.996,-187500.0224,-187500.0224,-187500.0224,-179896.0483,-187500.0224,-186137.1694,-187500.0224,-187500.0224,0.344,-0.07,0.918,192,0,0,0,0,0,0,0,0,0,0
 2023-06-27 18:16:21.996,-187500.0224,-187500.0224,-187500.0224,-180172.0476,-187500.0224,-186644.9117,-187500.0224,-187500.0224,0.344,-0.07,0.918,192,0,0,0,0,0,0,0,0,0,0
 2023-06-27 18:16:21.996,-187500.0224,-187500.0224,-187500.0224,-180931.0682,-187500.0224,-187500.0224,-187500.0224,-187500.0224,0.344,-0.07,0.918,192,0,0,0,0,0,0,0,0,0,0
 2023-06-27 18:16:21.996,-187500.0224,-187500.0224,-187500.0224,-181080.0649,-187500.0224,-187500.0224,-187500.0224,-187500.0224,0.344,-0.07,0.918,192,0,0,0,0,0,0,0,0,0,0
 2023-06-27 18:16:21.996,-187500.0224,-187500.0224,-187500.0224,-180440.5368,-187500.0224,-187123.8872,-187500.0224,-187500.0224,0.344,-0.07,0.918,192,0,0,0,0,0,0,0,0,0,0
 2023-06-27 18:16:21.996,-187500.0224,-187500.0224,-187500.0224,-179881.0503,-187500.0224,-186110.5038,-187500.0224,-187500.0224,0.344,-0.07,0.918,192,0,0,0,0,0,0,0,0,0,0
 2023-06-27 18:16:21.996,-187500.0224,-187500.0224,-187500.0224,-180149.3606,-187500.0224,-186603.6727,-187500.0224,-187500.0224,0.342,-0.066,0.92,192,10,176,253,240,28,192,0,0,0,0
 2023-06-27 18:16:21.996,-187500.0224,-187500.0224,-187500.0224,-180910.7951,-187500.0224,-187500.0224,-187500.0224,-187500.0224,0.342,-0.066,0.92,192,0,0,0,0,0,0,0,0,0,0
 2023-06-27 18:16:21.996,-187500.0224,-187500.0224,-187500.0224,-181068.8667,-187500.0224,-187500.0224,-187500.0224,-187500.0224,0.342,-0.066,0.92,192,0,0,0,0,0,0,0,0,0,0
 2023-06-27 18:16:21.996,-187500.0224,-187500.0224,-187500.0224,-180432.0431,-187500.0224,-187111.549,-187500.0224,-187500.0224,0.342,-0.066,0.92,192,0,0,0,0,0,0,0,0,0,0
 2023-06-27 18:16:21.996,-187500.0224,-187500.0224,-187500.0224,-179872.6684,-187500.0224,-186096.7798,-187500.0224,-187500.0224,0.342,-0.066,0.92,192,0,0,0,0,0,0,0,0,0,0
 2023-06-27 18:16:21.996,-187500.0224,-187500.0224,-187500.0224,-180144.5326,-187500.0224,-186593.972,-187500.0224,-187500.0224,0.342,-0.066,0.92,192,0,0,0,0,0,0,0,0,0,0
 2023-06-27 18:16:21.996,-187500.0224,-187500.0224,-187500.0224,-180911.2422,-187500.0224,-187500.0224,-187500.0224,-187500.0224,0.342,-0.066,0.92,192,0,0,0,0,0,0,0,0,0,0
 2023-06-27 18:16:21.996,-187500.0224,-187500.0224,-187500.0224,-181070.9677,-187500.0224,-187500.0224,-187500.0224,-187500.0224,0.342,-0.066,0.92,192,0,0,0,0,0,0,0,0,0,0
 2023-06-27 18:16:21.996,-187500.0224,-187500.0224,-187500.0224,-180435.1277,-187500.0224,-187114.4324,-187500.0224,-187500.0224,0.342,-0.066,0.92,192,0,0,0,0,0,0,0,0,0,0
 2023-06-27 18:16:21.996,-187500.0224,-187500.0224,-187500.0224,-179871.6849,-187500.0224,-186093.4494,-187500.0224,-187500.0224,0.342,-0.066,0.92,192,0,0,0,0,0,0,0,0,0,0
 2023-06-27 18:16:21.996,-187500.0224,-187500.0224,-187500.0224,-180139.8164,-187500.0224,-186585.6125,-187500.0224,-187500.0224,0.346,-0.064,0.922,192,10,208,254,0,28,208,0,0,0,0
 2023-06-27 18:16:21.996,-187500.0224,-187500.0224,-187500.0224,-180908.56,-187500.0224,-187500.0224,-187500.0224,-187500.0224,0.346,-0.064,0.922,192,0,0,0,0,0,0,0,0,0,0
 2023-06-27 18:16:21.996,-187500.0224,-187500.0224,-187500.0224,-181071.5489,-187500.0224,-187500.0224,-187500.0224,-187500.0224,0.346,-0.064,0.922,192,0,0,0,0,0,0,0,0,0,0
 2023-06-27 18:16:21.996,-187500.0224,-187500.0224,-187500.0224,-180433.049,-187500.0224,-187114.3654,-187500.0224,-187500.0224,0.346,-0.064,0.922,192,0,0,0,0,0,0,0,0,0,0
 2023-06-27 18:16:21.996,-187500.0224,-187500.0224,-187500.0224,-179868.958,-187500.0224,-186089.8284,-187500.0224,-187500.0224,0.346,-0.064,0.922,192,0,0,0,0,0,0,0,0,0,0
 2023-06-27 18:16:21.996,-187500.0224,-187500.0224,-187500.0224,-180132.9097,-187500.0224,-186576.4036,-187500.0224,-187500.0224,0.346,-0.064,0.922,192,0,0,0,0,0,0,0,0,0,0
 2023-06-27 18:16:21.996,-187500.0224,-187500.0224,-187500.0224,-180903.3297,-187500.0224,-187500.0224,-187500.0224,-187500.0224,0.346,-0.064,0.922,192,0,0,0,0,0,0,0,0,0,0
 2023-06-27 18:16:21.996,-187500.0224,-187500.0224,-187500.0224,-181070.5431,-187500.0224,-187500.0224,-187500.0224,-187500.0224,0.346,-0.064,0.922,192,0,0,0,0,0,0,0,0,0,0
 2023-06-27 18:16:21.996,-187500.0224,-187500.0224,-187500.0224,-180436.2453,-187500.0224,-187119.7968,-187500.0224,-187500.0224,0.346,-0.064,0.922,192,0,0,0,0,0,0,0,0,0,0
 2023-06-27 18:16:21.996,-187500.0224,-187500.0224,-187500.0224,-179868.7568,-187500.0224,-186089.6943,-187500.0224,-187500.0224,0.346,-0.064,0.922,192,0,0,0,0,0,0,0,0,0,0
 2023-06-27 18:16:21.996,-187500.0224,-187500.0224,-187500.0224,-180131.0098,-187500.0224,-186573.1626,-187500.0224,-187500.0224,0.344,-0.062,0.926,192,10,192,254,16,28,240,0,0,0,0
 2023-06-27 18:16:21.996,-187500.0224,-187500.0224,-187500.0224,-180901.4745,-187500.0224,-187500.0224,-187500.0224,-187500.0224,0.344,-0.062,0.926,192,0,0,0,0,0,0,0,0,0,0
 2023-06-27 18:16:22.474,-187500.0224,-187500.0224,-187500.0224,-181071.7948,-187500.0224,-187500.0224,-187500.0224,-187500.0224,0.344,-0.062,0.926,192,0,0,0,0,0,0,0,0,0,0
 2023-06-27 18:16:22.475,-187500.0224,-187500.0224,-187500.0224,-180438.9051,-187500.0224,-187125.1612,-187500.0224,-187500.0224,0.344,-0.062,0.926,192,0,0,0,0,0,0,0,0,0,0
 2023-06-27 18:16:22.475,-187500.0224,-187500.0224,-187500.0224,-179869.2709,-187500.0224,-186090.119,-187500.0224,-187500.0224,0.344,-0.062,0.926,192,0,0,0,0,0,0,0,0,0,0
 2023-06-27 18:16:22.475,-187500.0224,-187500.0224,-187500.0224,-180127.8359,-187500.0224,-186567.9993,-187500.0224,-187500.0224,0.344,-0.062,0.926,192,0,0,0,0,0,0,0,0,0,0
 2023-06-27 18:16:22.475,-187500.0224,-187500.0224,-187500.0224,-180900.9157,-187500.0224,-187500.0224,-187500.0224,-187500.0224,0.344,-0.062,0.926,192,0,0,0,0,0,0,0,0,0,0
 2023-06-27 18:16:22.475,-187500.0224,-187500.0224,-187500.0224,-181074.9911,-187500.0224,-187500.0224,-187500.0224,-187500.0224,0.344,-0.062,0.926,192,0,0,0,0,0,0,0,0,0,0
 2023-06-27 18:16:22.475,-187500.0224,-187500.0224,-187500.0224,-180447.5776,-187500.0224,-187136.8959,-187500.0224,-187500.0224,0.344,-0.062,0.926,192,0,0,0,0,0,0,0,0,0,0
 2023-06-27 18:16:22.475,-187500.0224,-187500.0224,-187500.0224,-179874.2777,-187500.0224,-186096.0869,-187500.0224,-187500.0224,0.344,-0.062,0.926,192,0,0,0,0,0,0,0,0,0,0
 2023-06-27 18:16:22.475,-187500.0224,-187500.0224,-187500.0224,-180130.9204,-187500.0224,-186570.078,-187500.0224,-187500.0224,0.342,-0.064,0.926,192,10,176,254,0,28,240,0,0,0,0
 2023-06-27 18:16:22.475,-187500.0224,-187500.0224,-187500.0224,-180902.1674,-187500.0224,-187500.0224,-187500.0224,-187500.0224,0.342,-0.064,0.926,192,0,0,0,0,0,0,0,0,0,0
 2023-06-27 18:16:22.475,-187500.0224,-187500.0224,-187500.0224,-181076.7568,-187500.0224,-187500.0224,-187500.0224,-187500.0224,0.342,-0.064,0.926,192,0,0,0,0,0,0,0,0,0,0
 2023-06-27 18:16:22.475,-187500.0224,-187500.0224,-187500.0224,-180446.1694,-187500.0224,-187138.7735,-187500.0224,-187500.0224,0.342,-0.064,0.926,192,0,0,0,0,0,0,0,0,0,0
 2023-06-27 18:16:22.475,-187500.0224,-187500.0224,-187500.0224,-179868.9133,-187500.0224,-186091.5048,-187500.0224,-187500.0224,0.342,-0.064,0.926,192,0,0,0,0,0,0,0,0,0,0
 2023-06-27 18:16:22.475,-187500.0224,-187500.0224,-187500.0224,-180123.8796,-187500.0224,-186561.6514,-187500.0224,-187500.0224,0.342,-0.064,0.926,192,0,0,0,0,0,0,0,0,0,0
 2023-06-27 18:16:22.475,-187500.0224,-187500.0224,-187500.0224,-180896.6688,-187500.0224,-187500.0224,-187500.0224,-187500.0224,0.342,-0.064,0.926,192,0,0,0,0,0,0,0,0,0,0
 2023-06-27 18:16:22.475,-187500.0224,-187500.0224,-187500.0224,-181077.4274,-187500.0224,-187500.0224,-187500.0224,-187500.0224,0.342,-0.064,0.926,192,0,0,0,0,0,0,0,0,0,0
 2023-06-27 18:16:22.475,-187500.0224,-187500.0224,-187500.0224,-180449.8351,-187500.0224,-187144.6073,-187500.0224,-187500.0224,0.342,-0.064,0.926,192,0,0,0,0,0,0,0,0,0,0
 2023-06-27 18:16:22.475,-187500.0224,-187500.0224,-187500.0224,-179869.4944,-187500.0224,-186092.9577,-187500.0224,-187500.0224,0.342,-0.064,0.926,192,0,0,0,0,0,0,0,0,0,0
 2023-06-27 18:16:22.475,-187500.0224,-187500.0224,-187500.0224,-180122.8067,-187500.0224,-186559.8633,-187500.0224,-187500.0224,0.348,-0.064,0.93,192,10,224,254,0,29,16,0,0,0,0
 2023-06-27 18:16:22.475,-187500.0224,-187500.0224,-187500.0224,-180896.87,-187500.0224,-187500.0224,-187500.0224,-187500.0224,0.348,-0.064,0.93,192,0,0,0,0,0,0,0,0,0,0
 2023-06-27 18:16:22.475,-187500.0224,-187500.0224,-187500.0224,-181075.7957,-187500.0224,-187500.0224,-187500.0224,-187500.0224,0.348,-0.064,0.93,192,0,0,0,0,0,0,0,0,0,0
 2023-06-27 18:25:14.230,115890.5987,-26428.18855,-87046.43244,-125007.8753,-18454.51664,-73635.05049,15577.22128,-19913.415,0.344,-0.064,0.926,192,10,192,254,0,28,240,0,0,0,0
 2023-06-27 18:25:14.230,96466.6869,-43310.46114,-98803.22651,-134232.6637,-33789.62383,-91249.1639,6228.604165,-43513.25852,0.344,-0.064,0.926,192,0,0,0,0,0,0,0,0,0,0
 2023-06-27 18:25:14.230,96188.36298,-43749.53881,-99436.85376,-135047.2283,-33143.25609,-92376.27296,5680.338225,-42083.90916,0.344,-0.064,0.926,192,0,0,0,0,0,0,0,0,0,0
 2023-06-27 18:25:14.230,115495.5316,-27099.50085,-88046.67301,-126334.1607,-17323.63013,-75476.07428,14694.21562,-17426.53756,0.344,-0.064,0.926,192,0,0,0,0,0,0,0,0,0,0
 2023-06-27 18:25:14.230,127284.9369,-16736.67332,-80628.15137,-120305.0235,-8598.850202,-64251.72111,20645.61345,-4273.519429,0.344,-0.064,0.926,192,0,0,0,0,0,0,0,0,0,0
 2023-06-27 18:25:14.230,116124.4874,-26223.42422,-86921.64265,-124895.7589,-18260.95054,-73417.23274,15710.79531,-19597.78602,0.344,-0.064,0.926,192,0,0,0,0,0,0,0,0,0,0
 2023-06-27 18:25:14.230,96599.07628,-43193.9862,-98728.21405,-134158.6124,-33690.22562,-91111.03012,6321.81094,-43347.58739,0.344,-0.064,0.926,192,0,0,0,0,0,0,0,0,0,0
 2023-06-27 18:25:14.230,96113.0376,-43815.85643,-99480.68553,-135071.2118,-33212.81471,-92427.32435,5675.353786,-42179.1723,0.344,-0.064,0.926,192,0,0,0,0,0,0,0,0,0,0
 2023-06-27 18:25:14.230,115318.0588,-27259.53934,-88155.07897,-126417.0186,-17466.0331,-75628.37906,14634.4247,-17631.14543,0.344,-0.064,0.926,192,0,0,0,0,0,0,0,0,0,0
 2023-06-27 18:25:14.230,127322.9572,-16712.19816,-80608.6383,-120294.8311,-8562.327452,-64217.14297,20684.28197,-4198.372865,0.344,-0.064,0.926,192,0,0,0,0,0,0,0,0,0,0
 2023-06-27 18:25:14.230,116407.1252,-25982.40536,-86752.39524,-124765.0012,-18029.8335,-73155.53852,15866.63167,-19226.36708,0.344,-0.066,0.922,192,10,192,253,240,28,208,0,0,0,0
 2023-06-27 18:25:14.230,96756.74549,-43058.86991,-98631.81098,-134076.1121,-33577.25991,-90952.71271,6419.912746,-43165.57713,0.344,-0.066,0.922,192,0,0,0,0,0,0,0,0,0,0
 2023-06-27 18:25:14.230,96003.26818,-43910.49372,-99547.67371,-135112.786,-33314.00106,-92506.98596,5644.508379,-42326.98438,0.344,-0.066,0.922,192,0,0,0,0,0,0,0,0,0,0
 2023-06-27 18:25:14.230,115090.898,-27457.08405,-88299.53829,-126521.1778,-17648.57979,-75824.40386,14543.78838,-17897.1759,0.344,-0.066,0.922,192,0,0,0,0,0,0,0,0,0,0
 2023-06-27 18:25:14.230,127290.9048,-16740.83075,-80639.81898,-120313.8301,-8578.532467,-64246.64727,20685.69013,-4204.273725,0.344,-0.066,0.922,192,0,0,0,0,0,0,0,0,0,0
 2023-06-27 18:25:14.230,116599.1266,-25813.06855,-86642.04468,-124676.2648,-17863.71533,-72974.0647,15980.80438,-18955.95568,0.344,-0.066,0.922,192,0,0,0,0,0,0,0,0,0,0
 2023-06-27 18:25:14.230,96880.12712,-42949.2793,-98558.67607,-134012.7002,-33479.96276,-90822.08911,6507.911564,-43005.91862,0.344,-0.066,0.922,192,0,0,0,0,0,0,0,0,0,0
 2023-06-27 18:25:14.230,95910.79902,-43991.16117,-99603.86599,-135148.6382,-33390.80166,-92568.69913,5629.666821,-42438.0055,0.344,-0.066,0.922,192,0,0,0,0,0,0,0,0,0,0
 2023-06-27 18:25:14.230,114879.7634,-27642.8494,-88430.16189,-126618.0279,-17811.70283,-76002.45786,14467.47952,-18136.96541,0.344,-0.066,0.922,192,0,0,0,0,0,0,0,0,0,0
 2023-06-27 18:25:14.230,127295.7775,-16741.63541,-80642.16592,-120314.6571,-8563.534446,-64240.96993,20703.8621,-4163.615902,0.344,-0.066,0.922,192,0,0,0,0,0,0,0,0,0,0
 2023-06-27 18:25:14.230,116854.1153,-25593.3956,-86492.13153,-124554.3807,-17650.97143,-72735.92922,16118.42407,-18612.09644,0.346,-0.064,0.922,192,10,208,254,0,28,208,0,0,0,0
 2023-06-27 18:25:14.230,97043.58542,-42804.95409,-98456.95328,-133922.3545,-33359.46451,-90654.98747,6607.533289,-42805.53523,0.346,-0.064,0.922,192,0,0,0,0,0,0,0,0,0,0
 2023-06-27 18:25:14.230,95832.79143,-44052.85198,-99646.55783,-135170.3194,-33465.50119,-92618.72233,5614.177062,-42539.77299,0.346,-0.064,0.922,192,0,0,0,0,0,0,0,0,0,0
 2023-06-27 18:25:14.230,114691.45,-27802.9326,-88545.96627,-126700.3494,-17966.06397,-76163.61393,14394.67989,-18359.47703,0.346,-0.064,0.922,192,0,0,0,0,0,0,0,0,0,0
 2023-06-27 18:25:14.230,127308.5627,-16732.00181,-80642.36708,-120310.7679,-8554.057307,-64235.35964,20725.23036,-4128.99305,0.346,-0.064,0.922,192,0,0,0,0,0,0,0,0,0,0
 2023-06-27 18:25:14.230,117053.1353,-25425.22108,-86378.00352,-124462.3809,-17499.27014,-72562.68085,16231.03216,-18360.3711,0.346,-0.064,0.922,192,0,0,0,0,0,0,0,0,0,0
 2023-06-27 18:25:14.230,97149.19742,-42715.56946,-98393.7202,-133867.7715,-33290.06234,-90555.00812,6680.981121,-42689.35087,0.346,-0.064,0.922,192,0,0,0,0,0,0,0,0,0,0
 2023-06-27 18:25:14.230,95739.11527,-44136.08988,-99704.22533,-135208.2727,-33555.64577,-92694.49475,5593.948733,-42669.39076,0.346,-0.064,0.922,192,0,0,0,0,0,0,0,0,0,0
 2023-06-27 18:25:14.230,114485.0093,-27985.68046,-88680.90375,-126797.2665,-18133.88087,-76346.16063,14316.13586,-18606.26264,0.346,-0.064,0.922,192,0,0,0,0,0,0,0,0,0,0
 2023-06-27 18:25:14.230,127298.5044,-16745.14463,-80666.79754,-120319.4404,-8553.20794,-64245.55203,20735.06513,-4110.977544,0.346,-0.064,0.922,192,0,0,0,0,0,0,0,0,0,0
 2023-06-27 18:25:14.230,117282.196,-25227.98928,-86254.51013,-124352.0527,-17307.96156,-72349.71343,16357.87831,-18050.82179,0.346,-0.068,0.928,192,10,208,253,224,29,0,0,0,0,0
 2023-06-27 18:25:14.230,97317.50605,-42570.70781,-98298.09943,-133774.9894,-33161.361,-90386.81124,6785.721396,-42484.743,0.346,-0.068,0.928,192,0,0,0,0,0,0,0,0,0,0
 2023-06-27 18:25:14.230,95678.87732,-44190.20345,-99741.061,-135219.4262,-33609.89345,-92730.32459,5589.366625,-42750.57229,0.346,-0.068,0.928,192,0,0,0,0,0,0,0,0,0,0
 2023-06-27 18:25:14.230,114302.1496,-28148.78114,-88793.33303,-126873.1283,-18279.27897,-76503.36045,14248.65594,-18821.91227,0.346,-0.068,0.928,192,0,0,0,0,0,0,0,0,0,0
 2023-06-27 18:25:14.230,127327.3828,-16727.10678,-80655.62167,-120304.2189,-8526.698771,-64227.40242,20763.85418,-4057.087488,0.346,-0.068,0.928,192,0,0,0,0,0,0,0,0,0,0
 2023-06-27 18:25:14.230,117544.1137,-25005.43296,-86101.02071,-124223.6643,-17102.45962,-72120.58569,16498.80606,-17719.39012,0.346,-0.068,0.928,192,0,0,0,0,0,0,0,0,0,0
 2023-06-27 18:25:14.709,97485.9935,-42425.24265,-98191.41456,-133678.8322,-33044.19315,-90226.7504,6889.43349,-42291.78039,0.346,-0.068,0.928,192,0,0,0,0,0,0,0,0,0,0
 2023-06-27 18:25:14.709,95596.91347,-44258.28686,-99782.41173,-135237.8887,-33690.24798,-92789.53436,5575.508544,-42862.86746,0.346,-0.068,0.928,192,0,0,0,0,0,0,0,0,0,0
 2023-06-27 18:25:14.709,114093.0267,-28328.80209,-88916.04411,-126959.5849,-18450.15805,-76686.68946,14167.56382,-19069.70371,0.346,-0.068,0.928,192,0,0,0,0,0,0,0,0,0,0
 2023-06-27 18:25:14.709,127326.1982,-16729.29725,-80656.87336,-120301.5814,-8523.323658,-64234.2197,20775.67825,-4029.550139,0.346,-0.068,0.928,192,0,0,0,0,0,0,0,0,0,0
 2023-06-27 18:25:14.709,117790.9887,-24790.0292,-85951.66635,-124101.8026,-16897.94116,-71895.99537,16631.3519,-17388.24903,0.34,-0.068,0.922,192,10,160,253,224,28,208,0,0,0,0
 2023-06-27 18:25:14.709,97654.57036,-42275.01658,-98083.7462,-133583.4349,-32916.09531,-90061.19103,6989.144622,-42088.60303,0.34,-0.068,0.922,192,0,0,0,0,0,0,0,0,0,0
 2023-06-27 18:25:14.709,95531.71343,-44311.59578,-99814.24061,-135250.741,-33755.2245,-92837.50121,5562.589236,-42959.15877,0.34,-0.068,0.922,192,0,0,0,0,0,0,0,0,0,0
 2023-06-27 18:25:14.709,113901.5393,-28492.14864,-89029.88154,-127037.4584,-18602.46284,-76853.7911,14092.41725,-19296.28334,0.34,-0.068,0.922,192,0,0,0,0,0,0,0,0,0,0
 2023-06-27 18:25:14.709,127343.6773,-16710.92411,-80650.83839,-120287.9468,-8495.965123,-64217.72411,20796.68889,-3976.062414,0.34,-0.068,0.922,192,0,0,0,0,0,0,0,0,0,0
 2023-06-27 18:25:14.709,118071.3019,-24541.56721,-85785.03409,-123961.9477,-16663.60547,-71636.82689,16776.57119,-17020.1605,0.34,-0.068,0.922,192,0,0,0,0,0,0,0,0,0,0
 2023-06-27 18:25:14.709,97860.87696,-42088.93831,-97953.54729,-133466.133,-32759.58839,-89857.18666,7106.379522,-41847.13713,0.34,-0.068,0.922,192,0,0,0,0,0,0,0,0,0,0
 2023-06-27 18:25:14.709,95488.93219,-44340.85421,-99829.28334,-135247.2541,-33797.46929,-92854.51089,5563.215084,-43025.38699,0.34,-0.068,0.922,192,0,0,0,0,0,0,0,0,0,0
 2023-06-27 18:25:14.709,113709.9849,-28655.78576,-89135.20296,-127111.7332,-18755.54994,-77017.00354,14015.39314,-19530.2167,0.34,-0.068,0.922,192,0,0,0,0,0,0,0,0,0,0
 2023-06-27 18:25:14.709,127343.6996,-16710.36532,-80642.56825,-120278.5144,-8483.24698,-64216.56182,20807.17186,-3953.084821,0.34,-0.068,0.922,192,0,0,0,0,0,0,0,0,0,0
 2023-06-27 18:25:14.709,118309.8621,-24331.59492,-85630.74,-123837.5603,-16460.2493,-71415.45521,16903.90908,-16701.69284,0.34,-0.066,0.926,192,10,160,253,240,28,240,0,0,0,0
 2023-06-27 18:25:14.709,98041.59081,-41926.48583,-97828.0199,-133359.4481,-32617.96774,-89677.41158,7213.287915,-41626.52542,0.34,-0.066,0.926,192,0,0,0,0,0,0,0,0,0,0
 2023-06-27 18:25:14.709,95424.73798,-44388.01639,-99848.46113,-135251.3221,-33854.15332,-92890.63131,5557.068355,-43110.41303,0.34,-0.066,0.926,192,0,0,0,0,0,0,0,0,0,0
 2023-06-27 18:25:14.709,113492.7036,-28837.23722,-89252.72843,-127193.8312,-18927.09958,-77200.93604,13933.83162,-19787.55233,0.34,-0.066,0.926,192,0,0,0,0,0,0,0,0,0,0
 2023-06-27 18:25:14.709,127321.7949,-16725.02806,-80648.04443,-120276.5698,-8489.460765,-64235.5161,20814.39147,-3949.977928,0.34,-0.066,0.926,192,0,0,0,0,0,0,0,0,0,0
 2023-06-27 18:25:14.709,118511.4301,-24151.70808,-85500.69755,-123730.0931,-16291.60539,-71232.0368,17020.56283,-16430.32031,0.34,-0.066,0.926,192,0,0,0,0,0,0,0,0,0,0
 2023-06-27 18:25:14.709,98174.53899,-41806.3899,-97738.63527,-133279.2948,-32519.08362,-89545.60334,7302.560783,-41468.85621,0.34,-0.066,0.926,192,0,0,0,0,0,0,0,0,0,0
 2023-06-27 18:25:14.709,95325.02685,-44470.11435,-99901.56888,-135283.0839,-33939.13465,-92965.86728,5535.051886,-43242.26597,0.34,-0.066,0.926,192,0,0,0,0,0,0,0,0,0,0
 2023-06-27 18:25:14.709,113276.2716,-29022.84611,-89382.88264,-127291.5977,-19093.55302,-77392.06581,13849.72201,-20042.8316,0.34,-0.066,0.926,192,0,0,0,0,0,0,0,0,0,0
 2023-06-27 18:25:14.709,127335.9436,-16713.69573,-80644.95988,-120276.4356,-8469.344195,-64236.23136,20832.027,-3911.577631,0.34,-0.066,0.926,192,0,0,0,0,0,0,0,0,0,0
 2023-06-27 18:25:14.709,118779.4723,-23918.0206,-85342.58131,-123606.4656,-16070.77015,-71000.33861,17160.66356,-16089.65738,0.336,-0.068,0.93,192,10,128,253,224,29,16,0,0,0,0
 2023-06-27 18:25:14.709,98369.42385,-41632.13571,-97617.84644,-133177.6614,-32366.26474,-89364.3754,7413.604249,-41245.1376,0.336,-0.068,0.93,192,0,0,0,0,0,0,0,0,0,0
 2023-06-27 18:25:14.709,95283.29614,-44500.91505,-99922.15483,-135288.6719,-33975.85857,-92992.86818,5533.755485,-43313.54568,0.336,-0.068,0.93,192,0,0,0,0,0,0,0,0,0,0
 2023-06-27 18:25:14.709,113093.6802,-29178.72717,-89493.34496,-127369.3371,-19236.09009,-77555.39001,13778.24113,-20271.66876,0.336,-0.068,0.93,192,0,0,0,0,0,0,0,0,0,0
 2023-06-27 18:25:14.709,127323.4489,-16724.60338,-80659.64498,-120280.4813,-8468.539532,-64258.11371,20838.62076,-3914.818634,0.336,-0.068,0.93,192,0,0,0,0,0,0,0,0,0,0
 2023-06-27 18:25:14.709,118880.0775,-23835.49796,-85291.06054,-123560.4881,-15998.954,-70931.89757,17221.10268,-15976.93753,0.336,-0.068,0.93,192,0,0,0,0,0,0,0,0,0,0
 2023-06-27 18:25:14.709,98391.35091,-41612.2203,-97611.20798,-133166.2843,-32357.21229,-89355.72527,7439.733438,-41232.12889,0.336,-0.068,0.93,192,0,0,0,0,0,0,0,0,0,0
 2023-06-27 18:25:14.709,95128.3315,-44623.9614,-100019.072,-135357.4482,-34092.10999,-93123.78235,5477.362034,-43495.13125,0.336,-0.068,0.93,192,0,0,0,0,0,0,0,0,0,0
 2023-06-27 18:25:14.710,112817.7032,-29406.26793,-89668.20266,-127499.7595,-19438.66395,-77796.78885,13659.911,-20577.7759,0.336,-0.068,0.93,192,0,0,0,0,0,0,0,0,0,0
 2023-06-27 18:25:14.710,127252.4598,-16779.36516,-80714.9879,-120322.9496,-8505.576373,-64330.2875,20813.56446,-3955.968196,0.336,-0.068,0.93,192,0,0,0,0,0,0,0,0,0,0
 2023-06-27 18:25:14.710,119048.7884,-23683.5955,-85198.47962,-123485.7885,-15845.46457,-70784.2196,17314.15299,-15728.6767,0.342,-0.072,0.926,192,10,176,253,192,28,240,0,0,0,0
 2023-06-27 18:25:14.710,98503.06493,-41510.18459,-97545.06916,-133105.5547,-32261.21155,-89245.12884,7513.360085,-41079.24295,0.342,-0.072,0.926,192,0,0,0,0,0,0,0,0,0,0
 2023-06-27 18:25:14.710,95006.20157,-44727.58409,-100093.3915,-135403.5375,-34186.79198,-93220.72187,5439.185254,-43634.78495,0.342,-0.072,0.926,192,0,0,0,0,0,0,0,0,0,0
 2023-06-27 18:25:14.710,112559.5629,-29631.35,-89830.96806,-127617.2403,-19632.96767,-78023.88257,13551.37092,-20865.88989,0.342,-0.072,0.926,192,0,0,0,0,0,0,0,0,0,0
 2023-06-27 18:25:14.710,127211.5785,-16820.26885,-80754.66225,-120345.7931,-8519.948544,-64371.63822,20802.96973,-3956.839914,0.342,-0.072,0.926,192,0,0,0,0,0,0,0,0,0,0
 2023-06-27 18:25:14.710,119356.7061,-23411.3736,-85021.36439,-123336.7694,-15567.2077,-70487.09786,17473.7221,-15279.67486,0.342,-0.072,0.926,192,0,0,0,0,0,0,0,0,0,0
 2023-06-27 18:25:14.710,98784.54045,-41256.91697,-97370.055,-132952.0429,-32031.2568,-88954.37735,7667.073031,-40709.61216,0.342,-0.072,0.926,192,0,0,0,0,0,0,0,0,0,0
 2023-06-27 18:25:14.710,94982.30755,-44742.11273,-100097.7948,-135393.211,-34215.84925,-93214.28456,5446.203702,-43669.69838,0.342,-0.072,0.926,192,0,0,0,0,0,0,0,0,0,0
 2023-06-27 18:25:14.710,112361.9065,-29800.06096,-89943.64321,-127697.796,-19794.70489,-78190.73834,13470.927,-21105.16532,0.342,-0.072,0.926,192,0,0,0,0,0,0,0,0,0,0
 2023-06-27 18:25:14.710,127194.9041,-16831.51178,-80761.30071,-120349.7717,-8519.277992,-64382.38941,20804.02026,-3945.619338,0.342,-0.072,0.926,192,0,0,0,0,0,0,0,0,0,0
 2023-06-27 18:25:14.710,119557.8271,-23232.71611,-84897.87101,-123238.4218,-15394.42872,-70299.54437,17578.52943,-15003.65317,0.346,-0.072,0.924,192,10,208,253,192,28,224,0,0,0,0
 2023-06-27 18:25:14.710,98936.66642,-41122.0689,-97274.47895,-132871.9342,-31916.83822,-88807.14641,7752.546102,-40525.85846,0.346,-0.072,0.924,192,0,0,0,0,0,0,0,0,0,0
 2023-06-27 18:25:14.710,94890.7101,-44817.75103,-100150.3438,-135425.5316,-34299.95886,-93283.26205,5415.894737,-43788.47555,0.346,-0.072,0.924,192,0,0,0,0,0,0,0,0,0,0
 2023-06-27 18:25:14.710,112113.1762,-30016.98464,-90098.13846,-127811.3428,-19996.07176,-78411.41712,13359.81647,-21397.30262,0.346,-0.072,0.924,192,0,0,0,0,0,0,0,0,0,0
 2023-06-27 18:25:14.710,127155.7438,-16871.70021,-80796.3259,-120373.3528,-8545.340126,-64427.98697,20787.36821,-3960.215027,0.346,-0.072,0.924,192,0,0,0,0,0,0,0,0,0,0
 2023-06-27 18:25:14.710,119791.5146,-23033.69618,-84768.32029,-123129.5911,-15200.37087,-70094.75769,17694.93731,-14682.77153,0.346,-0.072,0.924,192,0,0,0,0,0,0,0,0,0,0
 2023-06-27 18:25:14.710,99129.60668,-40953.58145,-97159.70274,-132767.7527,-31769.69669,-88624.77852,7859.76742,-40285.35369,0.346,-0.072,0.924,192,0,0,0,0,0,0,0,0,0,0
 2023-06-27 18:25:14.710,94828.86283,-44868.37773,-100181.4351,-135434.7182,-34354.29595,-93326.95971,5405.858803,-43865.32085,0.346,-0.072,0.924,192,0,0,0,0,0,0,0,0,0,0
 2023-06-27 18:25:14.710,111890.4635,-30204.15815,-90228.78441,-127900.8615,-20163.32986,-78605.2738,13271.03535,-21648.13389,0.346,-0.072,0.924,192,0,0,0,0,0,0,0,0,0,0
 2023-06-27 18:25:14.710,127129.7487,-16887.12292,-80813.29087,-120379.5442,-8543.775504,-64453.53501,20788.19523,-3948.905045,0.346,-0.072,0.924,192,0,0,0,0,0,0,0,0,0,0
 2023-06-27 18:25:14.710,119971.4014,-22871.31076,-84660.83076,-123040.1841,-15040.80177,-69932.05934,17793.75437,-14428.14045,0.346,-0.068,0.922,192,10,208,253,224,28,208,0,0,0,0
 2023-06-27 18:25:14.710,99255.64817,-40837.03945,-97081.40458,-132697.7471,-31665.5152,-88499.00526,7936.3892,-40121.85068,0.346,-0.068,0.922,192,0,0,0,0,0,0,0,0,0,0
 2023-06-27 18:25:14.710,94721.17212,-44949.51456,-100242.5447,-135472.7832,-34435.83512,-93401.54748,5373.337015,-43988.59072,0.346,-0.068,0.922,192,0,0,0,0,0,0,0,0,0,0
 2023-06-27 18:25:14.710,111628.2551,-30424.45694,-90385.47014,-128019.6611,-20365.52374,-78830.26646,13159.29898,-21947.26729,0.346,-0.068,0.922,192,0,0,0,0,0,0,0,0,0,0
 2023-06-27 18:25:14.710,127076.2163,-16932.27344,-80848.98661,-120408.4674,-8573.726842,-64504.49699,20770.35854,-3972.821411,0.346,-0.068,0.922,192,0,0,0,0,0,0,0,0,0,0
 2023-06-27 18:25:14.710,120182.6477,-22683.15377,-84535.90686,-122940.5624,-14857.9198,-69737.68857,17904.70843,-14127.62125,0.346,-0.068,0.922,192,0,0,0,0,0,0,0,0,0,0
 2023-06-27 18:25:14.710,99444.92274,-40665.46746,-96964.4379,-132597.6113,-31516.8761,-88313.46343,8040.436571,-39880.5636,0.346,-0.068,0.922,192,0,0,0,0,0,0,0,0,0,0
 2023-06-27 18:25:14.710,94649.46772,-45007.0703,-100280.6768,-135490.8434,-34501.72806,-93452.62122,5353.309852,-44080.90342,0.346,-0.068,0.922,192,0,0,0,0,0,0,0,0,0,0
 2023-06-27 18:25:14.710,111377.8038,-30639.99482,-90536.88086,-128128.827,-20564.99071,-79053.56038,13050.22246,-22244.43373,0.346,-0.068,0.922,192,0,0,0,0,0,0,0,0,0,0
 2023-06-27 18:25:14.710,127005.9871,-16993.04783,-80899.27803,-120445.1466,-8619.100883,-64579.48709,20740.42955,-4028.589014,0.346,-0.068,0.922,192,0,0,0,0,0,0,0,0,0,0
 2023-06-27 18:25:14.710,120315.3277,-22568.46697,-84461.96728,-122883.7219,-14746.04931,-69632.45656,17972.52363,-13942.52645,0.348,-0.072,0.928,192,10,224,253,192,29,0,0,0,0,0
 2023-06-27 18:25:14.710,99534.37442,-40584.88942,-96909.78788,-132552.1255,-31448.16684,-88233.39948,8095.935952,-39766.90498,0.348,-0.072,0.928,192,0,0,0,0,0,0,0,0,0,0
 2023-06-27 18:25:14.710,94526.7343,-45104.50156,-100351.5989,-135541.0007,-34596.61121,-93550.63362,5310.126282,-44223.44049,0.348,-0.072,0.928,192,0,0,0,0,0,0,0,0,0,0
 2023-06-27 18:25:14.710,111123.888,-30850.92823,-90691.8455,-128244.7208,-20753.72884,-79270.9311,12940.63186,-22528.18913,0.348,-0.072,0.928,192,0,0,0,0,0,0,0,0,0,0
 2023-06-27 18:25:14.710,126948.8784,-17038.31012,-80939.95821,-120475.1427,-8644.961851,-64632.86306,20721.89995,-4053.53356,0.348,-0.072,0.928,192,0,0,0,0,0,0,0,0,0,0
 2023-06-27 18:25:14.710,120515.9346,-22389.83183,-84346.72169,-122789.4423,-14569.29172,-69452.65912,18079.90141,-13653.74191,0.348,-0.072,0.928,192,0,0,0,0,0,0,0,0,0,0
 2023-06-27 18:25:14.710,99727.40409,-40410.12113,-96794.05055,-132451.0285,-31293.13514,-88048.12587,8205.124224,-39515.13493,0.348,-0.072,0.928,192,0,0,0,0,0,0,0,0,0,0
 2023-06-27 18:25:14.710,94460.88606,-45156.2682,-100390.6698,-135559.1056,-34657.40796,-93597.52758,5295.888221,-44305.4714,0.348,-0.072,0.928,192,0,0,0,0,0,0,0,0,0,0
 2023-06-27 18:25:14.710,110849.6321,-31088.50492,-90863.05986,-128369.1082,-20971.65835,-79519.16957,12822.48054,-22850.54598,0.348,-0.072,0.928,192,0,0,0,0,0,0,0,0,0,0
 2023-06-27 18:25:14.710,126867.6298,-17108.98633,-81002.09606,-120516.7393,-8691.744052,-64715.25159,20688.81937,-4105.344904,0.348,-0.072,0.928,192,0,0,0,0,0,0,0,0,0,0
 2023-06-27 18:25:14.710,120708.8748,-22219.51154,-84241.02029,-122698.046,-14396.6692,-69279.83544,18178.62906,-13367.8184,0.346,-0.068,0.924,192,10,208,253,224,28,224,0,0,0,0
 2023-06-27 18:25:14.710,99907.84972,-40252.22841,-96687.09745,-132355.5642,-31149.99457,-87877.49265,8304.611838,-39283.95084,0.346,-0.068,0.924,192,0,0,0,0,0,0,0,0,0,0
 2023-06-27 18:25:14.710,94386.4324,-45220.68593,-100435.3062,-135580.4069,-34724.19497,-93655.21743,5276.710424,-44399.32637,0.346,-0.068,0.924,192,0,0,0,0,0,0,0,0,0,0
 2023-06-27 18:25:14.710,110602.243,-31302.90285,-91017.21984,-128477.2907,-21165.11269,-79737.25554,12719.05902,-23136.24598,0.346,-0.068,0.924,192,0,0,0,0,0,0,0,0,0,0
 2023-06-27 18:25:14.710,126808.6659,-17161.53528,-81049.30294,-120544.5001,-8724.556413,-64775.10956,20670.6474,-4138.917224,0.346,-0.068,0.924,192,0,0,0,0,0,0,0,0,0,0
 2023-06-27 18:25:14.710,120877.1611,-22076.14745,-84150.2275,-122619.3679,-14252.85807,-69138.55006,18267.87958,-13132.27572,0.346,-0.068,0.924,192,0,0,0,0,0,0,0,0,0,0
 2023-06-27 18:25:14.710,100079.6899,-40102.98581,-96588.01217,-132267.3195,-31014.72181,-87720.11402,8400.612581,-39068.32356,0.346,-0.068,0.924,192,0,0,0,0,0,0,0,0,0,0
 2023-06-27 18:25:14.710,94336.16332,-45260.31557,-100462.2847,-135592.7674,-34768.45142,-93686.68868,5269.73668,-44464.07938,0.346,-0.068,0.924,192,0,0,0,0,0,0,0,0,0,0
 2023-06-27 18:25:14.710,110365.1134,-31508.09187,-91157.90172,-128585.5402,-21354.43197,-79943.45038,12620.10784,-23420.73899,0.346,-0.068,0.924,192,0,0,0,0,0,0,0,0,0,0
 2023-06-27 18:25:14.710,126762.286,-17203.80243,-81080.37187,-120572.6857,-8749.031573,-64819.23191,20658.73392,-4165.873428,0.346,-0.068,0.924,192,0,0,0,0,0,0,0,0,0,0
 2023-06-27 18:25:14.710,121083.1101,-21901.64738,-84030.48921,-122526.9881,-14076.48046,-68951.57772,18378.69953,-12852.96832,0.344,-0.07,0.92,192,10,192,253,208,28,192,0,0,0,0
 2023-06-27 18:25:14.711,100277.8381,-39936.77824,-96468.76561,-132168.0778,-30860.29361,-87531.04061,8510.605515,-38829.67399,0.344,-0.07,0.92,192,0,0,0,0,0,0,0,0,0,0
 2023-06-27 18:25:14.711,94280.57453,-45312.28337,-100496.4159,-135606.9384,-34818.89931,-93720.2163,5257.8232,-44543.76334,0.344,-0.07,0.92,192,0,0,0,0,0,0,0,0,0,0
 2023-06-27 18:25:14.711,110121.7699,-31723.42857,-91312.08406,-128692.3368,-21549.02626,-80155.7249,12512.5289,-23716.11729,0.344,-0.07,0.92,192,0,0,0,0,0,0,0,0,0,0
 2023-06-27 18:25:14.711,126698.1589,-17266.96846,-81131.95969,-120604.8945,-8793.310379,-64886.26479,20629.29668,-4220.657554,0.344,-0.07,0.92,192,0,0,0,0,0,0,0,0,0,0
 2023-06-27 18:25:14.711,121281.6606,-21733.31639,-83922.1056,-122434.7424,-13913.6927,-68778.08348,18476.98015,-12583.16041,0.344,-0.07,0.92,192,0,0,0,0,0,0,0,0,0,0
 2023-06-27 18:25:14.711,100494.136,-39745.24614,-96342.50061,-132056.6767,-30696.81295,-87326.23158,8625.716999,-38563.04003,0.344,-0.07,0.92,192,0,0,0,0,0,0,0,0,0,0
 2023-06-27 18:25:14.711,94270.67271,-45315.25616,-100502.4955,-135598.0871,-34841.56398,-93713.86841,5268.082651,-44569.17728,0.344,-0.07,0.92,192,0,0,0,0,0,0,0,0,0,0
 2023-06-27 18:25:14.711,109913.4964,-31901.50492,-91438.72904,-128782.012,-21720.6653,-80333.66714,12427.48051,-23971.32951,0.344,-0.07,0.92,192,0,0,0,0,0,0,0,0,0,0
 2023-06-27 18:25:14.711,126642.883,-17316.65639,-81171.45522,-120632.7225,-8829.721371,-64936.51151,20612.91285,-4261.270673,0.344,-0.07,0.92,192,0,0,0,0,0,0,0,0,0,0
 2023-06-27 18:25:14.711,121448.4941,-21591.8969,-83829.63643,-122358.97,-13772.18381,-68628.10327,18568.0188,-12353.96562,0.338,-0.072,0.918,192,10,144,253,192,28,176,0,0,0,0
 2023-06-27 18:25:14.711,100667.6526,-39596.94232,-96240.73312,-131969.5049,-30558.65682,-87157.83354,8727.417437,-38348.10565,0.338,-0.072,0.918,192,0,0,0,0,0,0,0,0,0,0
 2023-06-27 18:25:14.711,94205.15975,-45369.39208,-100542.1028,-135617.3543,-34890.93898,-93749.11711,5258.650215,-44648.57067,0.338,-0.072,0.918,192,0,0,0,0,0,0,0,0,0,0
 2023-06-27 18:25:14.711,109657.8371,-32124.73179,-91601.06976,-128898.1517,-21920.24403,-80551.79781,12320.81799,-24274.57562,0.338,-0.072,0.918,192,0,0,0,0,0,0,0,0,0,0
 2023-06-27 18:25:14.711,126549.8551,-17403.13529,-81244.61248,-120681.7398,-8893.110918,-65024.21975,20577.30652,-4343.927424,0.338,-0.072,0.918,192,0,0,0,0,0,0,0,0,0,0
 2023-06-27 18:25:14.711,121577.6201,-21486.1508,-83768.30325,-122304.1412,-13661.14034,-68520.32316,18636.45984,-12168.04381,0.338,-0.072,0.918,192,0,0,0,0,0,0,0,0,0,0
 2023-06-27 18:25:14.711,100810.0108,-39480.0874,-96167.68761,-131903.2096,-30452.21781,-87032.37319,8804.553307,-38172.80092,0.338,-0.072,0.918,192,0,0,0,0,0,0,0,0,0,0
 2023-06-27 18:25:14.711,94160.25509,-45415.52608,-100581.1066,-135636.6215,-34938.5035,-93785.68456,5249.016613,-44712.36255,0.338,-0.072,0.918,192,0,0,0,0,0,0,0,0,0,0
 2023-06-27 18:25:14.711,109413.8902,-32344.00241,-91763.56694,-129015.6772,-22117.65464,-80770.82256,12213.64137,-24568.72458,0.338,-0.072,0.918,192,0,0,0,0,0,0,0,0,0,0
 2023-06-27 18:25:14.711,126476.1837,-17477.63365,-81309.52195,-120728.3879,-8943.424695,-65102.18264,20547.93633,-4405.238259,0.338,-0.072,0.918,192,0,0,0,0,0,0,0,0,0,0
 2023-06-27 18:25:14.711,121776.2824,-21323.92184,-83667.40747,-122220.4563,-13495.22334,-68352.08158,18742.25065,-11896.67128,0.338,-0.072,0.924,192,10,144,253,192,28,224,0,0,0,0
 2023-06-27 18:25:14.711,101034.7353,-39291.05869,-96043.27781,-131795.7871,-30278.58946,-86825.99954,8931.332401,-37895.84045,0.338,-0.072,0.924,192,0,0,0,0,0,0,0,0,0,0
 2023-06-27 18:25:14.711,94158.75753,-45420.62228,-100587.231,-135630.9218,-34954.35088,-93780.49896,5271.14484,-44731.02626,0.338,-0.072,0.924,192,0,0,0,0,0,0,0,0,0,0
 2023-06-27 18:25:14.711,109220.8605,-32513.98742,-91888.49084,-129104.2795,-22275.90499,-80940.60641,12141.98168,-24806.79301,0.338,-0.072,0.924,192,0,0,0,0,0,0,0,0,0,0
 2023-06-27 18:25:14.711,126437.5822,-17514.35757,-81346.0894,-120752.6172,-8960.970814,-65140.40412,20541.34256,-4427.835873,0.338,-0.072,0.924,192,0,0,0,0,0,0,0,0,0,0
 2023-06-27 18:25:14.711,121991.8203,-21141.12927,-83547.82564,-122126.3107,-13309.30153,-68158.2696,18855.73046,-11605.87509,0.338,-0.072,0.924,192,0,0,0,0,0,0,0,0,0,0
 2023-06-27 18:25:14.711,101273.0943,-39087.41195,-95902.01478,-131681.2568,-30088.82315,-86598.83876,9060.905464,-37602.36205,0.338,-0.072,0.924,192,0,0,0,0,0,0,0,0,0,0
 2023-06-27 18:25:14.711,94144.45241,-45434.18979,-100593.4001,-135629.6254,-34972.67931,-93774.95572,5281.247828,-44759.1224,0.338,-0.072,0.924,192,0,0,0,0,0,0,0,0,0,0
 2023-06-27 18:25:14.711,109003.2886,-32706.61476,-92021.8637,-129202.873,-22452.99786,-81128.09284,12050.56304,-25072.4882,0.338,-0.072,0.924,192,0,0,0,0,0,0,0,0,0,0
 2023-06-27 18:25:14.711,126359.4405,-17586.75487,-81402.16993,-120791.7328,-9015.106739,-65212.93553,20510.54186,-4491.739511,0.338,-0.072,0.924,192,0,0,0,0,0,0,0,0,0,0
 2023-06-27 18:25:14.711,122169.3155,-20985.56113,-83450.03676,-122040.8824,-13155.56623,-67995.86183,18949.92071,-11348.13712,0.338,-0.072,0.924,192,0,0,0,0,0,0,0,0,0,0
 2023-06-27 18:25:14.711,101500.7021,-38883.80991,-95767.94902,-131560.2668,-29910.23271,-86381.24453,9188.511573,-37313.82338,0.338,-0.07,0.926,192,10,144,253,208,28,240,0,0,0,0
 2023-06-27 18:25:14.711,94128.69443,-45441.92349,-100603.1007,-135619.3883,-34997.26623,-93772.76525,5295.128261,-44789.1408,0.338,-0.07,0.926,192,0,0,0,0,0,0,0,0,0,0
 2023-06-27 18:25:14.711,108779.9723,-32894.54822,-92158.61167,-129295.8339,-22632.8847,-81315.66868,11962.47482,-25343.16782,0.338,-0.07,0.926,192,0,0,0,0,0,0,0,0,0,0
 2023-06-27 18:25:14.711,126287.2221,-17643.573,-81454.9871,-120823.5169,-9057.731516,-65272.72645,20490.51469,-4549.384659,0.338,-0.07,0.926,192,0,0,0,0,0,0,0,0,0,0
 2023-06-27 18:25:14.711,122342.698,-20830.57413,-83359.04281,-121957.9574,-13001.49566,-67832.38117,19048.55896,-11102.67026,0.338,-0.07,0.926,192,0,0,0,0,0,0,0,0,0,0
 2023-06-27 18:25:15.188,101706.7852,-38703.43133,-95653.70925,-131455.4148,-29748.5849,-86181.6658,9306.841708,-37059.48288,0.338,-0.07,0.926,192,0,0,0,0,0,0,0,0,0,0
 2023-06-27 18:25:15.188,94121.2513,-45449.009,-100614.746,-135610.47,-35015.59466,-93763.69044,5314.194299,-44815.38174,0.338,-0.07,0.926,192,0,0,0,0,0,0,0,0,0,0
 2023-06-27 18:25:15.188,108562.9369,-33084.78392,-92298.13126,-129389.5771,-22811.05045,-81499.42237,11881.40504,-25614.20508,0.338,-0.07,0.926,192,0,0,0,0,0,0,0,0,0,0
 2023-06-27 18:25:15.189,126210.3768,-17716.03736,-81515.00154,-120862.0961,-9112.560345,-65341.43571,20471.24749,-4619.211509,0.338,-0.07,0.926,192,0,0,0,0,0,0,0,0,0,0
 2023-06-27 18:25:15.189,122518.025,-20686.13716,-83264.96431,-121879.1451,-12856.92458,-67678.08708,19146.95134,-10864.7583,0.338,-0.07,0.926,192,0,0,0,0,0,0,0,0,0,0
 2023-06-27 18:25:15.189,101917.428,-38523.54449,-95531.40051,-131349.8922,-29585.35011,-85981.55063,9426.356486,-36800.71673,0.34,-0.066,0.93,192,10,160,253,240,29,16,0,0,0,0
 2023-06-27 18:25:15.189,94096.64203,-45470.53373,-100631.2863,-135610.0229,-35044.9425,-93769.41249,5321.413913,-44855.27961,0.34,-0.066,0.93,192,0,0,0,0,0,0,0,0,0,0
 2023-06-27 18:25:15.189,108348.2931,-33272.62798,-92433.85106,-129483.1862,-22986.64576,-81683.46664,11791.12635,-25875.02758,0.34,-0.066,0.93,192,0,0,0,0,0,0,0,0,0,0
 2023-06-27 18:25:15.189,126139.2312,-17779.71748,-81567.0811,-120895.9589,-9158.090849,-65407.37336,20443.66544,-4679.136536,0.34,-0.066,0.93,192,0,0,0,0,0,0,0,0,0,0
 2023-06-27 18:25:15.189,122693.3745,-20532.40186,-83163.6215,-121795.3931,-12701.84817,-67520.06024,19242.54975,-10618.62089,0.34,-0.066,0.93,192,0,0,0,0,0,0,0,0,0,0
 2023-06-27 18:25:15.189,102138.6209,-38328.45847,-95394.38431,-131234.8925,-29407.31846,-85772.2936,9553.739077,-36523.53275,0.34,-0.066,0.93,192,0,0,0,0,0,0,0,0,0,0
 2023-06-27 18:25:15.189,94098.98896,-45462.17417,-100621.0939,-135593.9297,-35048.0494,-93751.17347,5349.957091,-44862.36511,0.34,-0.066,0.93,192,0,0,0,0,0,0,0,0,0,0
 2023-06-27 18:25:15.189,108136.488,-33451.97838,-92556.31626,-129574.0684,-23152.18278,-81863.0182,11712.67172,-26136.0289,0.34,-0.066,0.93,192,0,0,0,0,0,0,0,0,0,0
 2023-06-27 18:25:15.189,126064.4869,-17840.17895,-81614.48915,-120930.783,-9197.541678,-65472.08166,20421.60427,-4740.536778,0.34,-0.066,0.93,192,0,0,0,0,0,0,0,0,0,0
 2023-06-27 18:25:15.189,122859.068,-20381.617,-83070.34768,-121719.129,-12548.80578,-67367.6437,19333.38724,-10381.62534,0.34,-0.066,0.93,192,0,0,0,0,0,0,0,0,0,0
 2023-06-27 18:25:15.189,102338.2219,-38146.76114,-95276.3671,-131135.0919,-29241.35676,-85578.8169,9665.654262,-36268.20877,0.338,-0.066,0.934,192,10,144,253,240,29,48,0,0,0,0
 2023-06-27 18:25:15.189,94083.99094,-45468.16444,-100632.1133,-135589.7722,-35060.924,-93744.98203,5361.490591,-44880.22415,0.338,-0.066,0.934,192,0,0,0,0,0,0,0,0,0,0
 2023-06-27 18:25:15.189,107921.6654,-33635.03917,-92691.47726,-129667.0293,-23323.46419,-82042.70387,11629.45618,-26390.50351,0.338,-0.066,0.934,192,0,0,0,0,0,0,0,0,0,0
 2023-06-27 18:25:15.189,125963.9041,-17930.01061,-81685.83592,-120980.1133,-9267.100306,-65558.15823,20391.92115,-4827.909747,0.338,-0.066,0.934,192,0,0,0,0,0,0,0,0,0,0
 2023-06-27 18:25:15.189,122980.0356,-20280.96709,-83007.40516,-121665.2836,-12441.91974,-67254.8568,19410.70192,-10198.18457,0.338,-0.066,0.934,192,0,0,0,0,0,0,0,0,0,0
 2023-06-27 18:25:15.189,102515.0242,-37996.60212,-95175.53838,-131048.4789,-29102.8877,-85409.0107,9775.289568,-36042.79143,0.338,-0.066,0.934,192,0,0,0,0,0,0,0,0,0,0
 2023-06-27 18:25:15.189,94056.65476,-45493.84659,-100649.6818,-135595.9413,-35093.55755,-93755.10737,5374.007568,-44919.47382,0.338,-0.066,0.934,192,0,0,0,0,0,0,0,0,0,0
 2023-06-27 18:25:15.189,107692.56,-33834.84141,-92833.88023,-129772.4625,-23510.45889,-82239.51098,11540.20566,-26662.25602,0.338,-0.066,0.934,192,0,0,0,0,0,0,0,0,0,0
 2023-06-27 18:25:15.189,125848.8596,-18031.64399,-81765.51989,-121041.8488,-9349.824113,-65667.4359,20348.55877,-4936.539225,0.338,-0.066,0.934,192,0,0,0,0,0,0,0,0,0,0
 2023-06-27 18:25:15.189,123118.9293,-20163.8663,-82932.88445,-121607.6385,-12320.37095,-67137.53249,19488.53069,-9988.52521,0.338,-0.066,0.934,192,0,0,0,0,0,0,0,0,0,0
 2023-06-27 18:25:15.189,102729.0869,-37809.80859,-95048.46871,-130944.8786,-28930.71221,-85207.97911,9893.463241,-35759.81835,0.342,-0.068,0.93,192,10,176,253,224,29,16,0,0,0,0
 2023-06-27 18:25:15.189,94063.31558,-45485.26352,-100643.6468,-135586.2407,-35095.23393,-93735.48254,5394.191193,-44914.35527,0.342,-0.068,0.93,192,0,0,0,0,0,0,0,0,0,0
 2023-06-27 18:25:15.189,107478.1173,-34019.8915,-92966.7837,-129873.2912,-23686.92591,-82426.75155,11448.36234,-26928.26413,0.342,-0.068,0.93,192,0,0,0,0,0,0,0,0,0,0
 2023-06-27 18:25:15.189,125749.1932,-18116.93825,-81837.98424,-121096.4764,-9419.718018,-65758.3181,20306.89511,-5032.987002,0.342,-0.068,0.93,192,0,0,0,0,0,0,0,0,0,0
 2023-06-27 18:25:15.189,123269.1107,-20033.198,-82860.46479,-121545.1207,-12189.45678,-67004.42785,19567.05237,-9775.781307,0.342,-0.068,0.93,192,0,0,0,0,0,0,0,0,0,0
 2023-06-27 18:25:15.189,102945.9659,-37619.75171,-94931.43498,-130841.77,-28756.10039,-85004.04179,10010.54168,-35485.78596,0.342,-0.068,0.93,192,0,0,0,0,0,0,0,0,0,0
 2023-06-27 18:25:15.189,94059.33697,-45484.9953,-100654.2415,-135577.9929,-35104.80048,-93722.09385,5411.714961,-44924.52531,0.342,-0.068,0.93,192,0,0,0,0,0,0,0,0,0,0
 2023-06-27 18:25:15.189,107259.629,-34208.65198,-93107.7338,-129968.5097,-23866.67864,-82613.63448,11363.26925,-27198.25085,0.342,-0.068,0.93,192,0,0,0,0,0,0,0,0,0,0
 2023-06-27 18:25:15.189,125649.5268,-18206.09936,-81913.17551,-121146.0973,-9492.808222,-65850.96608,20271.22173,-5133.480446,0.342,-0.068,0.93,192,0,0,0,0,0,0,0,0,0,0
 2023-06-27 18:25:15.189,123417.8616,-19907.29063,-82785.20647,-121477.3725,-12060.59898,-66876.12884,19652.61485,-9570.167609,0.342,-0.068,0.93,192,0,0,0,0,0,0,0,0,0,0
 2023-06-27 18:25:15.189,103171.4726,-37425.80562,-94803.62771,-130727.4408,-28574.40306,-84795.85764,10142.28286,-35207.86437,0.334,-0.072,0.928,192,10,112,253,192,29,0,0,0,0,0
 2023-06-27 18:25:15.189,94057.52648,-45486.71639,-100660.433,-135563.8442,-35110.54487,-93709.71098,5439.721696,-44938.33869,0.334,-0.072,0.928,192,0,0,0,0,0,0,0,0,0,0
 2023-06-27 18:25:15.189,107043.7559,-34396.76427,-93247.07457,-130057.9837,-24039.41292,-82796.35999,11284.92639,-27461.71087,0.334,-0.072,0.928,192,0,0,0,0,0,0,0,0,0,0
 2023-06-27 18:25:15.189,125542.3502,-18301.60836,-81992.56891,-121192.4101,-9562.9927,-65943.32349,20237.35884,-5229.816464,0.334,-0.072,0.928,192,0,0,0,0,0,0,0,0,0,0
 2023-06-27 18:25:15.189,123540.4609,-19802.68446,-82725.03558,-121416.1064,-11943.96757,-66759.27392,19725.72741,-9373.293444,0.334,-0.072,0.928,192,0,0,0,0,0,0,0,0,0,0
 2023-06-27 18:25:15.189,103374.2253,-37255.30651,-94691.10902,-130623.8405,-28411.97293,-84602.35859,10255.11447,-34942.68327,0.334,-0.072,0.928,192,0,0,0,0,0,0,0,0,0,0
 2023-06-27 18:25:15.189,94076.32429,-45476.16636,-100654.0851,-135542.2524,-35101.53712,-93673.07647,5468.08606,-44916.99277,0.334,-0.072,0.928,192,0,0,0,0,0,0,0,0,0,0
 2023-06-27 18:25:15.189,106861.5668,-34562.77067,-93361.58256,-130134.4267,-24189.0355,-82945.75905,11215.41246,-27685.36242,0.334,-0.072,0.928,192,0,0,0,0,0,0,0,0,0,0
 2023-06-27 18:25:15.189,125460.811,-18383.12517,-82051.3987,-121230.0505,-9624.191776,-66017.82185,20211.22965,-5309.567488,0.334,-0.072,0.928,192,0,0,0,0,0,0,0,0,0,0
 2023-06-27 18:25:15.189,123708.479,-19666.60704,-82633.7734,-121339.6411,-11804.26917,-66611.26067,19820.92349,-9144.299822,0.334,-0.072,0.928,192,0,0,0,0,0,0,0,0,0,0
 2023-06-27 18:25:15.189,103622.4861,-37041.44502,-94541.93348,-130498.1343,-28212.90829,-84366.61474,10398.65737,-34630.58586,0.336,-0.07,0.922,192,10,128,253,208,28,208,0,0,0,0
 2023-06-27 18:25:15.189,94099.30189,-45453.18877,-100634.3038,-135514.8939,-35090.20479,-93631.25636,5508.498014,-44895.24453,0.336,-0.07,0.922,192,0,0,0,0,0,0,0,0,0,0
 2023-06-27 18:25:15.189,106661.407,-34733.13567,-93480.71736,-130215.3847,-24350.81742,-83106.71396,11146.47968,-27927.54357,0.336,-0.07,0.922,192,0,0,0,0,0,0,0,0,0,0
 2023-06-27 18:25:15.189,125356.7636,-18470.47579,-82119.9068,-121275.6033,-9693.43748,-66101.39502,20180.51835,-5405.30001,0.336,-0.07,0.922,192,0,0,0,0,0,0,0,0,0,0
 2023-06-27 18:25:15.189,123823.4563,-19567.32059,-82573.69191,-121286.131,-11703.68632,-66504.39698,19892.00203,-8973.59955,0.336,-0.07,0.922,192,0,0,0,0,0,0,0,0,0,0
 2023-06-27 18:25:15.190,103780.2447,-36906.0158,-94453.28646,-130421.4007,-28094.26523,-84218.60149,10494.23343,-34430.91773,0.336,-0.07,0.922,192,0,0,0,0,0,0,0,0,0,0
 2023-06-27 18:25:15.190,94069.4176,-45474.84761,-100655.4038,-135521.2641,-35121.67604,-93643.99685,5519.182148,-44932.01315,0.336,-0.07,0.922,192,0,0,0,0,0,0,0,0,0,0
 2023-06-27 18:25:15.190,106424.5008,-34934.07785,-93631.16695,-130324.1036,-24544.40588,-83313.13232,11054.92694,-28212.81889,0.336,-0.07,0.922,192,0,0,0,0,0,0,0,0,0,0
 2023-06-27 18:25:15.190,125238.7017,-18571.05864,-82207.65975,-121340.1105,-9781.145725,-66211.83499,20138.60883,-5519.226851,0.336,-0.07,0.922,192,0,0,0,0,0,0,0,0,0,0
 2023-06-27 18:25:15.190,123992.0108,-19415.08286,-82489.24702,-121216.1477,-11555.4272,-66350.9746,19987.13106,-8722.07537,0.336,-0.07,0.922,192,0,0,0,0,0,0,0,0,0,0
 2023-06-27 18:25:15.190,104082.3733,-36635.06796,-94279.70282,-130275.9803,-27851.30177,-83927.26885,10659.81515,-34039.7622,0.34,-0.066,0.926,192,10,160,253,240,28,240,0,0,0,0
 2023-06-27 18:25:15.190,94132.22601,-45418.45416,-100618.8364,-135482.0815,-35092.30585,-93569.05145,5570.635864,-44873.33982,0.34,-0.066,0.926,192,0,0,0,0,0,0,0,0,0,0
 2023-06-27 18:25:15.190,106253.8899,-35085.06388,-93735.99663,-130398.7137,-24700.66693,-83453.34482,10990.35275,-28439.80085,0.34,-0.066,0.926,192,0,0,0,0,0,0,0,0,0,0
 2023-06-27 18:25:15.190,125162.1917,-18640.21494,-82260.32046,-121377.572,-9842.45656,-66272.20705,20113.61958,-5596.563887,0.34,-0.066,0.926,192,0,0,0,0,0,0,0,0,0,0
 2023-06-27 18:25:15.190,124164.9016,-19266.68963,-82391.07816,-121135.2791,-11409.04563,-66184.43175,20082.68477,-8483.202277,0.34,-0.066,0.926,192,0,0,0,0,0,0,0,0,0,0
 2023-06-27 18:25:15.190,104349.5884,-36398.45239,-94118.055,-130141.3334,-27638.62492,-83663.94295,10807.91781,-33707.03414,0.34,-0.066,0.926,192,0,0,0,0,0,0,0,0,0,0
 2023-06-27 18:25:15.190,94171.65448,-45375.87409,-100590.2708,-135448.9786,-35069.9094,-93503.40438,5616.032257,-44838.09112,0.34,-0.066,0.926,192,0,0,0,0,0,0,0,0,0,0
 2023-06-27 18:25:15.190,106072.8855,-35236.31814,-93842.81562,-130472.6533,-24852.63644,-83596.68655,10926.71733,-28668.32509,0.34,-0.066,0.926,192,0,0,0,0,0,0,0,0,0,0
 2023-06-27 18:25:15.190,125072.8294,-18715.9203,-82315.70808,-121418.5874,-9910.495271,-66349.0747,20085.92577,-5686.104975,0.34,-0.066,0.926,192,0,0,0,0,0,0,0,0,0,0
 2023-06-27 18:25:15.190,124320.6932,-19129.51697,-82296.7538,-121063.4406,-11278.10911,-66042.27466,20172.89641,-8268.826696,0.34,-0.066,0.926,192,0,0,0,0,0,0,0,0,0,0
 2023-06-27 18:25:15.190,104585.9804,-36192.86104,-93968.723,-130023.7185,-27456.25704,-83440.09023,10942.20709,-33420.32831,0.344,-0.07,0.93,192,10,192,253,208,29,16,0,0,0,0
 2023-06-27 18:25:15.190,94197.26958,-45354.21525,-100561.1465,-135423.207,-35067.22719,-93465.2723,5653.382022,-44826.62467,0.344,-0.07,0.93,192,0,0,0,0,0,0,0,0,0,0
 2023-06-27 18:25:15.190,105890.2718,-35396.24487,-93941.65503,-130549.8562,-25012.20554,-83748.76782,10864.98181,-28901.00675,0.344,-0.07,0.93,192,0,0,0,0,0,0,0,0,0,0
 2023-06-27 18:25:15.190,124972.6713,-18806.15429,-82374.47081,-121468.0295,-9991.028606,-66437.07352,20057.71787,-5791.381692,0.344,-0.07,0.93,192,0,0,0,0,0,0,0,0,0,0
 2023-06-27 18:25:15.190,124442.175,-19028.37533,-82226.9046,-121011.1375,-11179.62732,-65934.62866,20247.30536,-8095.377159,0.344,-0.07,0.93,192,0,0,0,0,0,0,0,0,0,0
 2023-06-27 18:25:15.190,104809.699,-35999.27258,-93836.22185,-129917.3689,-27283.18748,-83228.82154,11068.89678,-33134.38244,0.344,-0.07,0.93,192,0,0,0,0,0,0,0,0,0,0
 2023-06-27 18:25:15.190,94204.08686,-45346.74976,-100557.682,-135415.1381,-35076.48081,-93445.15573,5678.997121,-44824.09892,0.344,-0.07,0.93,192,0,0,0,0,0,0,0,0,0,0
 2023-06-27 18:25:15.190,105693.0623,-35568.82269,-94065.14842,-130641.7219,-25181.29649,-83918.8646,10789.63408,-29143.63493,0.344,-0.07,0.93,192,0,0,0,0,0,0,0,0,0,0
 2023-06-27 18:25:15.190,124871.0826,-18898.42229,-82446.10816,-121523.216,-10067.65039,-66528.3804,20022.11154,-5891.562211,0.344,-0.07,0.93,192,0,0,0,0,0,0,0,0,0,0
 2023-06-27 18:25:15.190,124592.7363,-18902.82558,-82144.53842,-120948.1279,-11052.60236,-65800.40643,20332.2867,-7881.917999,0.344,-0.07,0.93,192,0,0,0,0,0,0,0,0,0,0
 2023-06-27 18:25:15.190,105052.8413,-35790.66375,-93687.49335,-129798.994,-27091.61068,-82999.20207,11206.65058,-32825.05665,0.342,-0.07,0.928,192,10,176,253,208,29,0,0,0,0,0
 2023-06-27 18:25:15.190,94218.52609,-45334.38925,-100539.6441,-135398.3072,-35074.29034,-93410.01879,5712.144758,-44812.52072,0.342,-0.07,0.928,192,0,0,0,0,0,0,0,0,0,0
 2023-06-27 18:25:15.190,105473.4788,-35761.85236,-94191.7487,-130741.0307,-25363.68672,-84099.04201,10706.06091,-29414.69454,0.342,-0.07,0.928,192,0,0,0,0,0,0,0,0,0,0
 2023-06-27 18:25:15.190,124732.4347,-19023.01091,-82532.40824,-121595.658,-10170.62487,-66648.56573,19968.66852,-6032.177035,0.342,-0.07,0.928,192,0,0,0,0,0,0,0,0,0,0
 2023-06-27 18:25:15.190,124678.5223,-18832.61875,-82100.93017,-120918.6683,-10973.85716,-65719.9625,20386.66849,-7740.85614,0.342,-0.07,0.928,192,0,0,0,0,0,0,0,0,0,0
 2023-06-27 18:25:15.190,105235.4998,-35636.77199,-93582.70837,-129718.9971,-26948.87244,-82825.88665,11312.50844,-32589.37986,0.342,-0.07,0.928,192,0,0,0,0,0,0,0,0,0,0
 2023-06-27 18:25:15.190,94233.45706,-45328.68955,-100534.5703,-135391.6017,-35077.97838,-93384.85073,5740.956156,-44804.45174,0.342,-0.07,0.928,192,0,0,0,0,0,0,0,0,0,0
 2023-06-27 18:25:15.190,105290.1051,-35928.84224,-94305.25086,-130825.8332,-25519.92542,-84252.35263,10640.83852,-29643.71051,0.342,-0.07,0.928,192,0,0,0,0,0,0,0,0,0,0
 2023-06-27 18:25:15.190,124646.537,-19106.91936,-82592.51208,-121641.479,-10237.99303,-66723.24291,19944.59569,-6117.58305,0.342,-0.07,0.928,192,0,0,0,0,0,0,0,0,0,0
 2023-06-27 18:25:15.190,124869.1603,-18673.76491,-81997.12867,-120835.4751,-10817.55141,-65545.12716,20494.22508,-7479.720709,0.342,-0.07,0.928,192,0,0,0,0,0,0,0,0,0,0
 2023-06-27 18:25:15.190,105557.946,-35356.01173,-93393.59026,-129563.7196,-26695.2919,-82513.78924,11491.65767,-32185.30502,0.342,-0.064,0.926,192,10,176,254,0,28,240,0,0,0,0
 2023-06-27 18:25:15.190,94305.11675,-45263.10954,-100488.3692,-135347.1217,-35040.62862,-93295.10847,5806.849099,-44736.36833,0.342,-0.064,0.926,192,0,0,0,0,0,0,0,0,0,0
 2023-06-27 18:25:15.190,105114.2639,-36077.05666,-94409.99113,-130902.0079,-25678.48869,-84396.09669,10586.45673,-29873.82172,0.342,-0.064,0.926,192,0,0,0,0,0,0,0,0,0,0
 2023-06-27 18:25:15.190,124515.9134,-19214.4089,-82675.34765,-121704.6451,-10340.40872,-66834.42048,19904.92134,-6256.074459,0.342,-0.064,0.926,192,0,0,0,0,0,0,0,0,0,0
 2023-06-27 18:25:15.190,124918.6471,-18629.10612,-81970.75361,-120815.4927,-10775.70895,-65500.75895,20537.74393,-7393.353569,0.342,-0.064,0.926,192,0,0,0,0,0,0,0,0,0,0
 2023-06-27 18:25:15.190,105677.1702,-35252.34434,-93320.45535,-129503.3475,-26606.8237,-82406.00913,11572.12395,-32029.84864,0.342,-0.064,0.926,192,0,0,0,0,0,0,0,0,0,0
 2023-06-27 18:25:15.190,94260.79324,-45296.99478,-100510.1398,-135355.5707,-35080.37002,-93320.90239,5813.375808,-44782.63644,0.342,-0.064,0.926,192,0,0,0,0,0,0,0,0,0,0
 2023-06-27 18:25:15.190,104891.2382,-36267.85115,-94544.34747,-130998.4781,-25861.19185,-84585.08069,10502.12359,-30133.54899,0.342,-0.064,0.926,192,0,0,0,0,0,0,0,0,0,0
 2023-06-27 18:25:15.190,124364.0333,-19346.57477,-82773.51651,-121776.7518,-10459.09649,-66970.65436,19844.52693,-6409.832109,0.342,-0.064,0.926,192,0,0,0,0,0,0,0,0,0,0
 2023-06-27 18:25:15.190,124997.4146,-18557.93817,-81931.571,-120782.1439,-10701.50116,-65426.55115,20583.63206,-7251.263529,0.342,-0.064,0.926,192,0,0,0,0,0,0,0,0,0,0
 2023-06-27 18:25:15.190,105892.4175,-35060.9687,-93194.10094,-129402.6306,-26429.28379,-82198.02614,11685.71552,-31735.36441,0.34,-0.07,0.926,192,10,160,253,208,28,240,0,0,0,0
 2023-06-27 18:25:15.190,94287.03419,-45270.26209,-100492.549,-135340.2374,-35065.03672,-93277.33884,5843.550663,-44743.96792,0.34,-0.07,0.926,192,0,0,0,0,0,0,0,0,0,0
 2023-06-27 18:25:15.190,104707.4175,-36429.32015,-94655.18977,-131084.6217,-26019.19633,-84739.82182,10431.62619,-30362.65437,0.34,-0.07,0.926,192,0,0,0,0,0,0,0,0,0,0
 2023-06-27 18:25:15.190,124245.9937,-19458.84758,-82854.29571,-121843.8294,-10560.97574,-67084.02241,19800.24812,-6545.462495,0.34,-0.07,0.926,192,0,0,0,0,0,0,0,0,0,0
 2023-06-27 18:25:15.190,125100.0092,-18482.41162,-81883.71591,-120750.1362,-10626.77927,-65347.13541,20644.11588,-7112.816824,0.34,-0.07,0.926,192,0,0,0,0,0,0,0,0,0,0
 2023-06-27 18:25:15.190,106103.6862,-34889.2179,-93077.06721,-129312.3742,-26270.29583,-82007.45517,11806.28083,-31473.53607,0.34,-0.07,0.926,192,0,0,0,0,0,0,0,0,0,0
 2023-06-27 18:25:15.190,94311.46464,-45259.55561,-100484.9718,-135330.2238,-35063.76267,-93247.3875,5880.587504,-44729.88632,0.34,-0.07,0.926,192,0,0,0,0,0,0,0,0,0,0
 2023-06-27 18:25:15.190,104500.6191,-36619.6676,-94791.51306,-131186.9033,-26199.82078,-84920.53567,10354.08799,-30628.30485,0.34,-0.07,0.926,192,0,0,0,0,0,0,0,0,0,0
 2023-06-27 18:25:15.190,124092.3702,-19599.26124,-82963.0146,-121929.0789,-10678.09888,-67217.50703,19740.68072,-6709.814872,0.34,-0.07,0.926,192,0,0,0,0,0,0,0,0,0,0
 2023-06-27 18:25:15.190,125158.9284,-18437.08228,-81865.81217,-120737.0604,-10570.0729,-65290.69725,20686.94182,-7007.428349,0.34,-0.07,0.926,192,0,0,0,0,0,0,0,0,0,0
 2023-06-27 18:25:15.190,106280.7791,-34740.84702,-92983.01106,-129238.7029,-26130.2398,-81844.80153,11910.79759,-31243.29075,0.34,-0.066,0.922,192,10,160,253,240,28,208,0,0,0,0
 2023-06-27 18:25:15.190,94314.88446,-45256.60518,-100487.7881,-135328.5474,-35063.24858,-93227.6062,5906.29201,-44720.85622,0.34,-0.066,0.922,192,0,0,0,0,0,0,0,0,0,0
 2023-06-27 18:25:15.190,104283.1366,-36806.46113,-94926.45054,-131288.3131,-26374.45496,-85101.71891,10273.28643,-30885.23816,0.34,-0.066,0.922,192,0,0,0,0,0,0,0,0,0,0
 2023-06-27 18:25:15.190,123950.8389,-19725.05685,-83059.66354,-122004.6055,-10782.90621,-67348.5106,19687.90825,-6853.201312,0.34,-0.066,0.922,192,0,0,0,0,0,0,0,0,0,0
 2023-06-27 18:25:15.190,125274.7998,-18340.16512,-81807.85409,-120692.5804,-10463.14215,-65192.37193,20753.99706,-6828.167358,0.34,-0.066,0.922,192,0,0,0,0,0,0,0,0,0,0
 2023-06-27 18:25:15.191,106526.4248,-34526.89612,-92837.05417,-129119.7469,-25921.60862,-81609.46001,12045.75742,-30914.85422,0.34,-0.066,0.922,192,0,0,0,0,0,0,0,0,0,0
 2023-06-27 18:25:15.191,94352.36834,-45224.99981,-100459.9378,-135301.703,-35037.07469,-93176.80069,5948.000365,-44674.99044,0.34,-0.066,0.922,192,0,0,0,0,0,0,0,0,0,0
 2023-06-27 18:25:15.191,104103.4286,-36964.95735,-95031.72726,-131367.5948,-26521.77531,-85250.96151,10210.6792,-31102.05008,0.34,-0.066,0.922,192,0,0,0,0,0,0,0,0,0,0
 2023-06-27 18:25:15.191,123827.9043,-19834.87097,-83137.64878,-122065.134,-10874.54836,-67454.79315,19645.70816,-6974.995968,0.34,-0.066,0.922,192,0,0,0,0,0,0,0,0,0,0
 2023-06-27 18:25:15.191,125392.2582,-18241.281,-81744.59866,-120642.7137,-10360.54765,-65084.70357,20825.12031,-6648.235816,0.34,-0.066,0.922,192,0,0,0,0,0,0,0,0,0,0
 2023-06-27 18:25:15.191,106791.6729,-34292.40397,-92681.97777,-128994.063,-25708.26122,-81354.15838,12193.14482,-30568.91627,0.34,-0.068,0.92,192,10,160,253,224,28,192,0,0,0,0
 2023-06-27 18:25:15.191,94388.22054,-45186.10778,-100437.1614,-135278.3901,-35018.47804,-93119.13319,5989.909886,-44635.24903,0.34,-0.068,0.92,192,0,0,0,0,0,0,0,0,0,0
 2023-06-27 18:25:15.191,103901.7712,-37133.66832,-95153.23134,-131461.0474,-26686.66413,-85413.36929,10135.7785,-31347.18166,0.34,-0.068,0.92,192,0,0,0,0,0,0,0,0,0,0
 2023-06-27 18:25:15.191,123687.9601,-19953.78225,-83230.54263,-122141.4652,-10979.04277,-67578.95709,19593.33802,-7119.276478,0.34,-0.068,0.92,192,0,0,0,0,0,0,0,0,0,0
 2023-06-27 18:25:15.191,125489.6224,-18154.17625,-81698.30819,-120610.7283,-10271.34183,-64998.73877,20885.98411,-6493.271171,0.34,-0.068,0.92,192,0,0,0,0,0,0,0,0,0,0
 2023-06-27 18:25:15.191,107019.7501,-34091.79706,-92553.14232,-128893.279,-25519.0984,-81139.93927,12323.70136,-30268.30766,0.34,-0.068,0.92,192,0,0,0,0,0,0,0,0,0,0
 2023-06-27 18:25:15.669,94434.01926,-45145.53936,-100414.005,-135255.4125,-34990.20308,-93065.71252,6040.335422,-44585.04702,0.34,-0.068,0.92,192,0,0,0,0,0,0,0,0,0,0
 2023-06-27 18:25:15.669,103695.0846,-37314.87391,-95282.37972,-131556.6458,-26863.26526,-85592.38441,10063.94,-31612.11689,0.34,-0.068,0.92,192,0,0,0,0,0,0,0,0,0,0
 2023-06-27 18:25:15.669,123522.7583,-20098.66626,-83340.73673,-122225.9324,-11103.96667,-67727.64089,19533.92709,-7302.516079,0.34,-0.068,0.92,192,0,0,0,0,0,0,0,0,0,0
 2023-06-27 18:25:15.669,125522.5018,-18127.8012,-81693.16729,-120606.3921,-10234.88614,-64971.82727,20918.46119,-6423.511377,0.34,-0.068,0.92,192,0,0,0,0,0,0,0,0,0,0
 2023-06-27 18:25:15.669,107180.1462,-33952.52335,-92467.35632,-128823.4969,-25383.42331,-80987.2545,12420.48441,-30046.17602,0.344,-0.074,0.922,192,10,192,253,176,28,208,0,0,0,0
 2023-06-27 18:25:15.669,94456.72863,-45125.57925,-100406.0701,-135244.4378,-34969.12539,-93027.44633,6074.26537,-44544.41155,0.344,-0.074,0.922,192,0,0,0,0,0,0,0,0,0,0
 2023-06-27 18:25:15.669,103515.466,-37472.76663,-95398.38527,-131642.9459,-27008.23867,-85742.40932,9998.672902,-31822.17858,0.344,-0.074,0.922,192,0,0,0,0,0,0,0,0,0,0
 2023-06-27 18:25:15.669,123389.8772,-20216.16938,-83432.40123,-122296.184,-11202.24729,-67844.58522,19482.42867,-7430.65863,0.344,-0.074,0.922,192,0,0,0,0,0,0,0,0,0,0
 2023-06-27 18:25:15.669,125627.4433,-18037.54485,-81638.98666,-120564.1473,-10136.76198,-64874.97716,20978.98972,-6249.145418,0.344,-0.074,0.922,192,0,0,0,0,0,0,0,0,0,0
 2023-06-27 18:25:15.669,107432.5198,-33731.19637,-92317.08554,-128702.3728,-25172.82518,-80747.39793,12559.08758,-29707.5918,0.344,-0.074,0.922,192,0,0,0,0,0,0,0,0,0,0
 2023-06-27 18:25:15.669,94517.25716,-45071.66685,-100366.731,-135204.8528,-34927.86407,-92957.97711,6127.507225,-44474.80821,0.344,-0.074,0.922,192,0,0,0,0,0,0,0,0,0,0
 2023-06-27 18:25:15.669,103334.6851,-37630.92758,-95506.23244,-131720.0594,-27159.69409,-85892.92596,9936.065666,-32050.32284,0.344,-0.074,0.922,192,0,0,0,0,0,0,0,0,0,0
 2023-06-27 18:25:15.669,123233.9961,-20356.11366,-83533.07349,-122372.3587,-11321.29268,-67984.06011,19424.26943,-7601.984751,0.344,-0.074,0.922,192,0,0,0,0,0,0,0,0,0,0
 2023-06-27 18:25:15.669,125655.2041,-18020.66928,-81637.77967,-120560.4146,-10111.23629,-64858.14629,21004.62717,-6193.400168,0.344,-0.074,0.922,192,0,0,0,0,0,0,0,0,0,0
 2023-06-27 18:25:15.669,107525.9724,-33661.30247,-92277.76882,-128669.2028,-25109.56974,-80677.28051,12616.73273,-29593.48614,0.346,-0.07,0.926,192,10,208,253,208,28,240,0,0,0,0
 2023-06-27 18:25:15.669,94490.63623,-45099.56182,-100395.006,-135222.2872,-34955.24495,-92977.19961,6133.184568,-44501.92088,0.346,-0.07,0.926,192,0,0,0,0,0,0,0,0,0,0
 2023-06-27 18:25:15.669,103088.4359,-37848.70062,-95669.44488,-131839.5742,-27362.04444,-86109.58142,9835.192243,-32343.57772,0.346,-0.07,0.926,192,0,0,0,0,0,0,0,0,0,0
 2023-06-27 18:25:15.669,123062.3124,-20511.88296,-83657.30448,-122464.7832,-11453.19032,-68143.51745,19352.90031,-7778.116498,0.346,-0.07,0.926,192,0,0,0,0,0,0,0,0,0,0
 2023-06-27 18:25:15.669,125775.613,-17921.5393,-81583.0179,-120514.4817,-10004.99845,-64751.26025,21072.75529,-5998.716473,0.346,-0.07,0.926,192,0,0,0,0,0,0,0,0,0,0
 2023-06-27 18:25:15.669,107858.7228,-33366.48296,-92084.09096,-128509.1419,-24833.77157,-80351.32502,12793.55738,-29142.33853,0.346,-0.07,0.926,192,0,0,0,0,0,0,0,0,0,0
 2023-06-27 18:25:15.669,94580.42319,-45014.22286,-100340.5795,-135168.8442,-34898.40447,-92866.40201,6199.70336,-44390.94447,0.346,-0.07,0.926,192,0,0,0,0,0,0,0,0,0,0
 2023-06-27 18:25:15.669,102922.586,-37985.67211,-95766.60791,-131911.6139,-27505.6544,-86233.16422,9780.1846,-32544.63167,0.346,-0.07,0.926,192,0,0,0,0,0,0,0,0,0,0
 2023-06-27 18:25:15.669,122923.8433,-20627.95557,-83744.02925,-122535.0347,-11561.43982,-68256.34906,19303.99469,-7922.441712,0.346,-0.07,0.926,192,0,0,0,0,0,0,0,0,0,0
 2023-06-27 18:25:15.669,125842.5341,-17861.61427,-81548.57386,-120493.2699,-9950.259024,-64689.30122,21118.84458,-5891.226934,0.346,-0.07,0.926,192,0,0,0,0,0,0,0,0,0,0
 2023-06-27 18:25:15.669,108005.9761,-33241.13437,-92000.40603,-128448.4569,-24728.42779,-80220.74613,12880.9527,-28961.17764,0.348,-0.07,0.924,192,10,224,253,208,28,224,0,0,0,0
 2023-06-27 18:25:15.669,94566.76627,-45026.2928,-100350.079,-135174.9462,-34917.55991,-92869.91124,6213.919069,-44411.15044,0.348,-0.07,0.924,192,0,0,0,0,0,0,0,0,0,0
 2023-06-27 18:25:15.669,102704.0306,-38178.03123,-95904.11584,-132013.292,-27684.75892,-86423.84695,9694.46566,-32808.42695,0.348,-0.07,0.924,192,0,0,0,0,0,0,0,0,0,0
 2023-06-27 18:25:15.669,122764.6318,-20771.63258,-83851.33998,-122617.0433,-11681.82632,-68402.55182,19242.50504,-8088.09049,0.348,-0.07,0.924,192,0,0,0,0,0,0,0,0,0,0
 2023-06-27 18:25:15.669,125953.0635,-17770.91089,-81494.21441,-120448.3876,-9850.39143,-64588.65131,21186.45861,-5716.168072,0.348,-0.07,0.924,192,0,0,0,0,0,0,0,0,0,0
 2023-06-27 18:25:15.669,108290.6703,-32992.8959,-91832.74559,-128311.1278,-24495.58967,-79946.53493,13037.37021,-28586.62946,0.348,-0.07,0.924,192,0,0,0,0,0,0,0,0,0,0
 2023-06-27 18:25:15.669,94651.54644,-44952.73321,-100299.1841,-135126.7335,-34864.11689,-92773.73168,6278.783831,-44317.07195,0.348,-0.07,0.924,192,0,0,0,0,0,0,0,0,0,0
 2023-06-27 18:25:15.669,102529.24,-38330.93951,-96012.58886,-132091.5678,-27842.0258,-86567.43456,9633.892433,-33035.16305,0.348,-0.07,0.924,192,0,0,0,0,0,0,0,0,0,0
 2023-06-27 18:25:15.669,122623.19,-20898.79166,-83948.99475,-122692.6592,-11799.06121,-68530.29204,19187.76562,-8245.335012,0.348,-0.07,0.924,192,0,0,0,0,0,0,0,0,0,0
 2023-06-27 18:25:15.669,126051.8582,-17692.29981,-81451.50023,-120415.2623,-9771.199199,-64505.21225,21244.84137,-5572.938093,0.348,-0.07,0.924,192,0,0,0,0,0,0,0,0,0,0
 2023-06-27 18:25:15.669,108565.865,-32758.58256,-91681.73721,-128186.5839,-24277.16843,-79687.07588,13183.95295,-28236.98112,0.342,-0.068,0.918,192,10,176,253,224,28,176,0,0,0,0
 2023-06-27 18:25:15.669,94742.85331,-44879.26303,-100251.396,-135081.1806,-34810.02567,-92674.57934,6341.726344,-44223.08287,0.342,-0.068,0.918,192,0,0,0,0,0,0,0,0,0,0
 2023-06-27 18:25:15.669,102378.0751,-38469.63209,-96109.1931,-132161.484,-27982.14888,-86690.59267,9580.069432,-33242.7884,0.342,-0.068,0.918,192,0,0,0,0,0,0,0,0,0,0
 2023-06-27 18:25:15.669,122491.2029,-21020.78748,-84039.3405,-122762.799,-11910.14938,-68646.02937,19137.69771,-8401.37254,0.342,-0.068,0.918,192,0,0,0,0,0,0,0,0,0,0
 2023-06-27 18:25:15.669,126156.7773,-17605.86561,-81400.85118,-120378.4267,-9687.626027,-64412.47486,21303.49234,-5427.47294,0.342,-0.068,0.918,192,0,0,0,0,0,0,0,0,0,0
 2023-06-27 18:25:15.669,108816.3163,-32541.36831,-91536.60733,-128073.1041,-24081.65772,-79453.85777,13316.34233,-27925.9566,0.342,-0.068,0.918,192,0,0,0,0,0,0,0,0,0,0
 2023-06-27 18:25:15.669,94804.11944,-44823.786,-100214.8286,-135047.0942,-34773.52527,-92602.2938,6389.268504,-44165.84005,0.342,-0.068,0.918,192,0,0,0,0,0,0,0,0,0,0
 2023-06-27 18:25:15.669,102210.6605,-38612.23622,-96212.81579,-132236.5859,-28123.54602,-86827.05007,9516.791644,-33461.50022,0.342,-0.068,0.918,192,0,0,0,0,0,0,0,0,0,0
 2023-06-27 18:25:15.669,122362.4793,-21135.54134,-84125.14885,-122829.6978,-12011.69336,-68765.16417,19086.22165,-8551.933891,0.342,-0.068,0.918,192,0,0,0,0,0,0,0,0,0,0
 2023-06-27 18:25:15.669,126281.1424,-17505.86391,-81334.60061,-120328.8058,-9589.814793,-64311.73555,21372.26866,-5263.567598,0.342,-0.068,0.918,192,0,0,0,0,0,0,0,0,0,0
 2023-06-27 18:25:15.669,109079.3516,-32315.57099,-91381.1286,-127949.0966,-23875.50758,-79211.81073,13456.53247,-27600.76107,0.346,-0.062,0.916,192,10,208,254,16,28,160,0,0,0,0
 2023-06-27 18:25:15.669,94869.31948,-44765.87263,-100173.232,-135007.9116,-34731.16871,-92522.43102,6439.001136,-44097.71193,0.346,-0.062,0.916,192,0,0,0,0,0,0,0,0,0,0
 2023-06-27 18:25:15.669,102050.8903,-38751.46523,-96307.60954,-132302.8141,-28258.66231,-86951.81751,9458.788867,-33665.57165,0.346,-0.062,0.916,192,0,0,0,0,0,0,0,0,0,0
 2023-06-27 18:25:15.669,122206.7994,-21275.50796,-84224.63646,-122903.5926,-12130.53759,-68899.45345,19026.49778,-8725.808111,0.346,-0.062,0.916,192,0,0,0,0,0,0,0,0,0,0
 2023-06-27 18:25:15.669,126325.0412,-17474.86204,-81316.74156,-120314.2995,-9546.228891,-64273.29055,21404.99162,-5187.616371,0.346,-0.062,0.916,192,0,0,0,0,0,0,0,0,0,0
 2023-06-27 18:25:15.669,109250.6777,-32175.11263,-91282.98209,-127873.1454,-23740.23482,-79055.86261,13552.89084,-27385.62553,0.346,-0.062,0.916,192,0,0,0,0,0,0,0,0,0,0
 2023-06-27 18:25:15.669,94898.89084,-44745.97958,-100158.3234,-134993.7406,-34716.48362,-92488.2999,6471.701738,-44071.26982,0.346,-0.062,0.916,192,0,0,0,0,0,0,0,0,0,0
 2023-06-27 18:25:15.669,101868.813,-38911.41431,-96423.01159,-132391.1482,-28408.17313,-87105.30694,9389.118479,-33888.46325,0.346,-0.062,0.916,192,0,0,0,0,0,0,0,0,0,0
 2023-06-27 18:25:15.669,122027.516,-21431.99252,-84343.48069,-122999.8392,-12266.61501,-69059.02255,18948.44549,-8921.005895,0.346,-0.062,0.916,192,0,0,0,0,0,0,0,0,0,0
 2023-06-27 18:25:15.669,126380.9429,-17430.49382,-81297.85434,-120305.5823,-9497.680902,-64232.58802,21433.37833,-5091.280352,0.346,-0.062,0.916,192,0,0,0,0,0,0,0,0,0,0
 2023-06-27 18:25:15.669,109441.7181,-32009.37444,-91178.42062,-127792.7909,-23588.04179,-78882.05545,13650.03152,-27132.58143,0.346,-0.064,0.924,192,10,208,254,0,28,224,0,0,0,0
 2023-06-27 18:25:15.669,94912.39129,-44733.23908,-100152.5119,-134988.5327,-34714.18139,-92465.47877,6489.694892,-44054.52836,0.346,-0.064,0.924,192,0,0,0,0,0,0,0,0,0,0
 2023-06-27 18:25:15.669,101671.1118,-39087.54606,-96543.93453,-132485.3161,-28575.83357,-87278.60001,9305.277086,-34133.41601,0.346,-0.064,0.924,192,0,0,0,0,0,0,0,0,0,0
 2023-06-27 18:25:15.669,121855.6758,-21588.16416,-84454.81473,-123087.5028,-12400.94899,-69219.28456,18875.33294,-9110.146357,0.346,-0.064,0.924,192,0,0,0,0,0,0,0,0,0,0
 2023-06-27 18:25:15.669,126455.3295,-17369.76413,-81261.08572,-120278.4026,-9429.10575,-64168.79614,21479.31117,-4967.809316,0.346,-0.064,0.924,192,0,0,0,0,0,0,0,0,0,0
 2023-06-27 18:25:15.669,109710.1402,-31775.32932,-91021.60079,-127666.6823,-23369.01705,-78627.84906,13794.28968,-26782.77663,0.346,-0.064,0.924,192,0,0,0,0,0,0,0,0,0,0
 2023-06-27 18:25:15.670,95014.82934,-44643.92151,-100092.274,-134934.8438,-34645.7627,-92355.19527,6560.415812,-43940.26624,0.346,-0.064,0.924,192,0,0,0,0,0,0,0,0,0,0
 2023-06-27 18:25:15.670,101547.9537,-39194.14153,-96621.78566,-132541.0613,-28687.65935,-87375.91951,9267.14501,-34300.00356,0.346,-0.064,0.924,192,0,0,0,0,0,0,0,0,0,0
 2023-06-27 18:25:15.670,121726.9521,-21700.52638,-84541.51714,-123156.2344,-12502.02358,-69329.29985,18828.86366,-9257.53376,0.346,-0.064,0.924,192,0,0,0,0,0,0,0,0,0,0
 2023-06-27 18:25:15.670,126536.6005,-17300.09375,-81224.74178,-120251.8487,-9357.915444,-64093.82839,21532.35186,-4847.55693,0.346,-0.064,0.924,192,0,0,0,0,0,0,0,0,0,0
 2023-06-27 18:25:15.670,109969.6439,-31547.43094,-90871.8441,-127549.5368,-23160.29646,-78383.58919,13937.45261,-26454.11658,0.346,-0.064,0.926,192,10,208,254,0,28,240,0,0,0,0
 2023-06-27 18:25:15.670,95101.84468,-44561.91296,-100038.3392,-134888.4639,-34585.01066,-92255.05945,6626.621679,-43844.44432,0.346,-0.064,0.926,192,0,0,0,0,0,0,0,0,0,0
 2023-06-27 18:25:15.670,101403.2708,-39315.19858,-96707.12462,-132603.2439,-28815.8019,-87488.97463,9221.65921,-34489.54636,0.346,-0.064,0.926,192,0,0,0,0,0,0,0,0,0,0
 2023-06-27 18:25:15.670,121577.9777,-21831.97699,-84638.65782,-123229.8834,-12629.60734,-69463.43267,18775.01831,-9435.923032,0.346,-0.064,0.926,192,0,0,0,0,0,0,0,0,0,0
 2023-06-27 18:25:15.670,126615.8821,-17239.07348,-81190.9683,-120225.0266,-9304.606534,-64033.59044,21583.31383,-4741.96729,0.346,-0.064,0.926,192,0,0,0,0,0,0,0,0,0,0
 2023-06-27 18:25:15.670,110193.6755,-31359.29631,-90750.22826,-127450.8092,-22996.92756,-78184.18928,14060.07428,-26180.06184,0.346,-0.064,0.926,192,0,0,0,0,0,0,0,0,0,0
 2023-06-27 18:25:15.670,95150.07975,-44522.0598,-100019.1838,-134864.704,-34567.64335,-92202.24228,6670.945188,-43799.62907,0.346,-0.064,0.926,192,0,0,0,0,0,0,0,0,0,0
 2023-06-27 18:25:15.670,101234.9175,-39460.93195,-96819.12921,-132682.8832,-28963.34576,-87628.09189,9162.449439,-34703.74312,0.346,-0.064,0.926,192,0,0,0,0,0,0,0,0,0,0
 2023-06-27 18:25:15.670,121396.8615,-21987.92511,-84762.44179,-123323.0902,-12771.87619,-69619.44784,18704.74442,-9638.161616,0.346,-0.064,0.926,192,0,0,0,0,0,0,0,0,0,0
 2023-06-27 18:25:15.670,126634.4564,-17221.46031,-81197.09268,-120226.2783,-9281.852458,-64012.69156,21606.47024,-4688.211344,0.346,-0.064,0.926,192,0,0,0,0,0,0,0,0,0,0
 2023-06-27 18:25:15.670,110350.4059,-31220.11199,-90668.97966,-127382.1223,-22867.75683,-78031.16924,14152.27522,-25968.52493,0.346,-0.064,0.926,192,0,0,0,0,0,0,0,0,0,0
 2023-06-27 18:25:15.670,95154.5948,-44512.73912,-100022.3354,-134861.8653,-34564.67057,-92174.03438,6694.570982,-43789.01199,0.346,-0.068,0.926,192,10,208,253,224,28,240,0,0,0,0
 2023-06-27 18:25:15.670,101055.6341,-39610.08514,-96929.81505,-132765.7187,-29100.87605,-87764.45988,9097.852897,-34907.99337,0.346,-0.068,0.926,192,0,0,0,0,0,0,0,0,0,0
 2023-06-27 18:25:15.670,121237.4936,-22125.83537,-84867.04795,-123404.5176,-12887.32295,-69755.54761,18642.22659,-9804.793871,0.346,-0.068,0.926,192,0,0,0,0,0,0,0,0,0,0
 2023-06-27 18:25:15.670,126693.1744,-17173.56052,-81173.82451,-120210.4309,-9224.766102,-63963.78594,21643.95412,-4587.31557,0.346,-0.068,0.926,192,0,0,0,0,0,0,0,0,0,0
 2023-06-27 18:25:15.670,110580.0924,-31018.70042,-90537.57376,-127277.0244,-22676.62706,-77817.08423,14274.47221,-25666.93284,0.346,-0.068,0.926,192,0,0,0,0,0,0,0,0,0,0
 2023-06-27 18:25:15.670,95238.65971,-44438.48663,-99973.78736,-134818.2347,-34507.13718,-92088.09192,6750.67386,-43696.60988,0.346,-0.068,0.926,192,0,0,0,0,0,0,0,0,0,0
 2023-06-27 18:25:15.670,100922.5519,-39728.19176,-97015.55634,-132828.393,-29224.28003,-87881.2701,9049.349612,-35094.07164,0.346,-0.068,0.926,192,0,0,0,0,0,0,0,0,0,0
 2023-06-27 18:25:15.670,121101.8409,-22245.3278,-84958.73481,-123475.1267,-12996.73474,-69877.29757,18589.02944,-9962.217207,0.346,-0.068,0.926,192,0,0,0,0,0,0,0,0,0,0
 2023-06-27 18:25:15.670,126798.5853,-17085.15937,-81122.4602,-120168.812,-9137.437837,-63870.44506,21702.85096,-4434.809617,0.346,-0.068,0.926,192,0,0,0,0,0,0,0,0,0,0
 2023-06-27 18:25:15.670,110895.3414,-30744.13159,-90356.63639,-127128.2959,-22422.06304,-77515.98388,14439.6069,-25259.79582,0.346,-0.068,0.926,192,0,0,0,0,0,0,0,0,0,0
 2023-06-27 18:25:15.670,95359.71676,-44332.58406,-99906.08393,-134751.2689,-34422.40172,-91952.75211,6829.553167,-43558.78902,0.344,-0.07,0.922,192,10,192,253,208,28,208,0,0,0,0
 2023-06-27 18:25:15.670,100803.1488,-39834.04962,-97095.24031,-132877.1198,-29331.43429,-87965.75969,9011.977495,-35254.08778,0.344,-0.07,0.922,192,0,0,0,0,0,0,0,0,0,0
 2023-06-27 18:25:15.670,120949.5361,-22381.8299,-85064.23504,-123551.9944,-13120.40694,-70005.44012,18528.3221,-10142.97576,0.344,-0.07,0.922,192,0,0,0,0,0,0,0,0,0,0
 2023-06-27 18:25:15.670,126834.0351,-17059.96896,-81116.87226,-120164.9004,-9107.195927,-63837.27507,21730.12009,-4379.667864,0.344,-0.07,0.922,192,0,0,0,0,0,0,0,0,0,0
 2023-06-27 18:25:15.670,111087.6335,-30579.68981,-90249.66094,-127046.2426,-22269.11006,-77336.83465,14544.52599,-25023.38141,0.344,-0.07,0.922,192,0,0,0,0,0,0,0,0,0,0
 2023-06-27 18:25:15.670,95400.0393,-44294.47434,-99880.93822,-134731.3088,-34398.68652,-91900.67254,6868.154629,-43525.7755,0.344,-0.07,0.922,192,0,0,0,0,0,0,0,0,0,0
 2023-06-27 18:25:15.670,100623.9549,-39982.59932,-97198.55007,-132959.1507,-29481.48155,-88115.04699,8947.224492,-35483.66254,0.344,-0.07,0.922,192,0,0,0,0,0,0,0,0,0,0
 2023-06-27 18:25:15.670,120782.2556,-22522.46708,-85166.2931,-123636.7969,-13249.15299,-70154.5039,18464.55258,-10331.57978,0.344,-0.07,0.922,192,0,0,0,0,0,0,0,0,0,0
 2023-06-27 18:25:15.670,126904.8455,-16994.16542,-81080.52833,-120140.4923,-9042.420571,-63775.02546,21777.10346,-4264.869304,0.344,-0.07,0.922,192,0,0,0,0,0,0,0,0,0,0
 2023-06-27 18:25:15.670,111329.39,-30363.48139,-90109.64961,-126935.825,-22075.85687,-77110.85851,14675.82013,-24711.77575,0.344,-0.07,0.922,192,0,0,0,0,0,0,0,0,0,0
 2023-06-27 18:25:15.670,95478.22571,-44219.55129,-99834.96068,-134691.5897,-34347.21045,-91814.10424,6926.425627,-43439.9895,0.346,-0.074,0.928,192,10,208,253,176,29,0,0,0,0,0
 2023-06-27 18:25:15.670,100494.4042,-40090.0665,-97278.45756,-133018.4946,-29592.97205,-88215.65219,8906.164337,-35654.36282,0.346,-0.074,0.928,192,0,0,0,0,0,0,0,0,0,0
 2023-06-27 18:25:15.670,120655.5212,-22631.92357,-85250.60388,-123703.3157,-13347.16539,-70264.18391,18420.18436,-10479.146,0.346,-0.074,0.928,192,0,0,0,0,0,0,0,0,0,0
 2023-06-27 18:25:15.670,127024.5838,-16894.43194,-81020.69271,-120096.1688,-8945.726925,-63672.83328,21847.13147,-4109.591736,0.346,-0.074,0.928,192,0,0,0,0,0,0,0,0,0,0
 2023-06-27 18:25:15.670,111641.3756,-30092.48884,-89928.51107,-126793.1985,-21830.14415,-76822.67747,14841.53597,-24332.01961,0.346,-0.074,0.928,192,0,0,0,0,0,0,0,0,0,0
 2023-06-27 18:25:15.670,95603.39547,-44108.08314,-99759.50119,-134625.965,-34262.02795,-91678.16093,7009.015323,-43311.80225,0.346,-0.074,0.928,192,0,0,0,0,0,0,0,0,0,0
 2023-06-27 18:25:15.670,100397.1965,-40172.58914,-97337.55557,-133058.7501,-29682.71431,-88280.00287,8880.549238,-35791.37901,0.346,-0.074,0.928,192,0,0,0,0,0,0,0,0,0,0
 2023-06-27 18:25:15.670,120545.6177,-22726.27029,-85320.22957,-123757.0493,-13435.61124,-70350.01461,18384.75685,-10605.43336,0.346,-0.074,0.928,192,0,0,0,0,0,0,0,0,0,0
 2023-06-27 18:25:15.670,127116.9188,-16812.33398,-80965.37214,-120058.0368,-8867.026432,-63579.13477,21908.08468,-3975.816545,0.346,-0.074,0.928,192,0,0,0,0,0,0,0,0,0,0
 2023-06-27 18:25:15.670,111890.4635,-29874.67109,-89773.65819,-126678.8693,-21635.95219,-76583.4244,14979.26742,-24022.73852,0.346,-0.074,0.928,192,0,0,0,0,0,0,0,0,0,0
 2023-06-27 18:25:15.670,95679.07848,-44037.6975,-99705.32056,-134585.7766,-34210.95421,-91582.47311,7068.828591,-43228.49729,0.34,-0.076,0.928,192,10,160,253,160,29,0,0,0,0,0
 2023-06-27 18:25:15.670,100240.5331,-40303.39155,-97426.53786,-133128.4205,-29814.16491,-88392.92388,8826.882699,-35986.39798,0.34,-0.076,0.928,192,0,0,0,0,0,0,0,0,0,0
 2023-06-27 18:25:15.670,120395.5257,-22857.60914,-85415.87268,-123835.8168,-13554.14254,-70476.59254,18325.8153,-10776.40185,0.34,-0.076,0.928,192,0,0,0,0,0,0,0,0,0,0
 2023-06-27 18:25:15.670,127226.6882,-16719.26131,-80911.79501,-120018.6083,-8773.640844,-63479.37894,21970.93779,-3818.66143,0.34,-0.076,0.928,192,0,0,0,0,0,0,0,0,0,0
 2023-06-27 18:25:15.670,112203.5443,-29599.49876,-89596.07358,-126535.7511,-21382.32695,-76286.30266,15144.49151,-23621.14473,0.34,-0.076,0.928,192,0,0,0,0,0,0,0,0,0,0
 2023-06-27 18:25:15.670,95803.77886,-43929.17978,-99636.29837,-134525.561,-34131.35965,-91452.3636,7148.780781,-43097.80664,0.34,-0.076,0.928,192,0,0,0,0,0,0,0,0,0,0
 2023-06-27 18:25:15.670,100125.9357,-40407.01424,-97499.06927,-133182.5341,-29926.21421,-88485.32599,8793.600952,-36154.63956,0.34,-0.076,0.928,192,0,0,0,0,0,0,0,0,0,0
 2023-06-27 18:25:15.670,120274.3122,-22969.03258,-85496.51778,-123900.9051,-13654.88185,-70582.85273,18285.98449,-10921.64349,0.34,-0.076,0.928,192,0,0,0,0,0,0,0,0,0,0
 2023-06-27 18:25:15.670,127330.758,-16637.67745,-80857.05559,-119982.7561,-8692.794584,-63389.36846,22035.93666,-3682.874582,0.34,-0.076,0.928,192,0,0,0,0,0,0,0,0,0,0
 2023-06-27 18:25:15.670,112442.261,-29402.82576,-89454.11765,-126431.8378,-21207.26808,-76074.76575,15276.90325,-23343.46901,0.34,-0.076,0.928,192,0,0,0,0,0,0,0,0,0,0
 2023-06-27 18:25:15.670,95895.93511,-43853.13914,-99573.98171,-134479.3376,-34073.89332,-91357.39104,7218.808796,-43008.22085,0.338,-0.076,0.922,192,10,144,253,160,28,208,0,0,0,0
 2023-06-27 18:25:15.670,100012.2324,-40506.81478,-97561.5871,-133234.4795,-30028.89812,-88574.95649,8765.147181,-36309.96183,0.338,-0.076,0.922,192,0,0,0,0,0,0,0,0,0,0
 2023-06-27 18:25:15.670,120133.9433,-23091.96718,-85578.61573,-123974.9341,-13766.9982,-70704.24506,18240.25282,-11082.79956,0.338,-0.076,0.922,192,0,0,0,0,0,0,0,0,0,0
 2023-06-27 18:25:15.670,127422.9589,-16561.12272,-80801.04212,-119952.6259,-8617.26804,-63305.70588,22098.49919,-3546.975976,0.338,-0.076,0.922,192,0,0,0,0,0,0,0,0,0,0
 2023-06-27 18:25:15.670,112756.5041,-29126.24528,-89259.27749,-126288.0714,-20951.38531,-75767.51867,15448.96697,-22933.09098,0.338,-0.076,0.922,192,0,0,0,0,0,0,0,0,0,0
 2023-06-27 18:25:16.150,95998.84254,-43760.02178,-99501.89734,-134426.3639,-34009.47559,-91230.90252,7293.463623,-42895.00927,0.338,-0.076,0.922,192,0,0,0,0,0,0,0,0,0,0
 2023-06-27 18:25:16.150,99874.05388,-40621.88156,-97635.48197,-133294.3151,-30154.49258,-88668.0068,8725.226966,-36489.06636,0.338,-0.076,0.922,192,0,0,0,0,0,0,0,0,0,0
 2023-06-27 18:25:16.150,119994.9154,-23210.58788,-85658.9479,-124041.6541,-13879.71805,-70812.18163,18196.53281,-11240.55818,0.338,-0.076,0.922,192,0,0,0,0,0,0,0,0,0,0
 2023-06-27 18:25:16.150,127509.4602,-16487.7643,-80747.15206,-119916.6396,-8550.011641,-63220.41162,22160.1006,-3425.114265,0.338,-0.076,0.922,192,0,0,0,0,0,0,0,0,0,0
 2023-06-27 18:25:16.150,113003.2674,-28914.59661,-89108.1797,-126172.8258,-20762.96011,-75534.07705,15587.45838,-22631.45419,0.338,-0.076,0.922,192,0,0,0,0,0,0,0,0,0,0
 2023-06-27 18:25:16.150,96066.59067,-43701.95195,-99456.70211,-134387.3154,-33971.61173,-91149.8551,7349.320632,-42832.44673,0.342,-0.072,0.92,192,10,176,253,192,28,192,0,0,0,0
 2023-06-27 18:25:16.150,99695.97753,-40777.20383,-97741.47394,-133373.0156,-30303.93634,-88807.14641,8660.719831,-36717.92587,0.342,-0.072,0.92,192,0,0,0,0,0,0,0,0,0,0
 2023-06-27 18:25:16.150,119804.8585,-23378.56124,-85778.06035,-124136.8054,-14023.64093,-70973.8518,18120.91686,-11451.87157,0.342,-0.072,0.92,192,0,0,0,0,0,0,0,0,0,0
 2023-06-27 18:25:16.150,127582.1704,-16430.43207,-80710.78577,-119893.8408,-8486.130355,-63158.00555,22208.38037,-3308.281697,0.342,-0.072,0.92,192,0,0,0,0,0,0,0,0,0,0
 2023-06-27 18:25:16.150,113246.2756,-28706.68068,-88962.82631,-126064.7104,-20576.94889,-75315.14172,15721.34533,-22327.40341,0.342,-0.072,0.92,192,0,0,0,0,0,0,0,0,0,0
 2023-06-27 18:25:16.150,96133.69061,-43641.93751,-99410.18813,-134354.5701,-33932.42913,-91074.06033,7404.440034,-42761.70346,0.342,-0.072,0.92,192,0,0,0,0,0,0,0,0,0,0
 2023-06-27 18:25:16.150,99531.91573,-40915.78465,-97834.30074,-133448.7657,-30443.76885,-88936.38419,8605.511022,-36920.29857,0.342,-0.072,0.92,192,0,0,0,0,0,0,0,0,0,0
 2023-06-27 18:25:16.150,119630.1797,-23532.65417,-85886.08633,-124228.1347,-14164.32281,-71129.06231,18052.40876,-11649.21512,0.342,-0.072,0.92,192,0,0,0,0,0,0,0,0,0,0
 2023-06-27 18:25:16.150,127641.4919,-16387.65083,-80683.80722,-119882.0391,-8443.505578,-63118.77824,22246.19952,-3218.360629,0.342,-0.072,0.92,192,0,0,0,0,0,0,0,0,0,0
 2023-06-27 18:25:16.150,113471.2682,-28517.67433,-88833.40971,-125968.665,-20408.10381,-75117.41818,15840.1225,-22043.5586,0.342,-0.072,0.92,192,0,0,0,0,0,0,0,0,0,0
 2023-06-27 18:25:16.150,96188.45239,-43593.65774,-99377.15225,-134326.2952,-33903.66243,-91012.25776,7446.774238,-42701.42081,0.344,-0.07,0.922,192,10,192,253,208,28,208,0,0,0,0
 2023-06-27 18:25:16.150,99350.71014,-41071.39749,-97942.7514,-133533.2776,-30596.05129,-89086.43145,8534.566585,-37146.65468,0.344,-0.07,0.922,192,0,0,0,0,0,0,0,0,0,0
 2023-06-27 18:25:16.150,119429.2375,-23709.1659,-86014.43005,-124333.389,-14321.34382,-71312.19015,17967.80741,-11879.19222,0.344,-0.07,0.922,192,0,0,0,0,0,0,0,0,0,0
 2023-06-27 18:25:16.150,127683.2003,-16356.20193,-80671.87138,-119878.3287,-8404.926468,-63091.12914,22273.62511,-3142.856436,0.344,-0.07,0.922,192,0,0,0,0,0,0,0,0,0,0
 2023-06-27 18:25:16.151,113717.808,-28303.00818,-88693.97952,-125862.0025,-20207.98864,-74889.22922,15968.68974,-21723.77219,0.344,-0.07,0.922,192,0,0,0,0,0,0,0,0,0,0
 2023-06-27 18:25:16.151,96258.32394,-43531.13991,-99339.89189,-134295.6062,-33860.3671,-90929.5563,7496.64098,-42630.11874,0.344,-0.07,0.922,192,0,0,0,0,0,0,0,0,0,0
 2023-06-27 18:25:16.151,99179.92046,-41216.25915,-98050.28564,-133615.2638,-30741.33763,-89218.86554,8469.835933,-37364.7183,0.344,-0.07,0.922,192,0,0,0,0,0,0,0,0,0,0
 2023-06-27 18:25:16.151,119226.5966,-23882.92836,-86143.66783,-124437.0117,-14479.92944,-71485.28206,17883.47428,-12109.77281,0.344,-0.07,0.922,192,0,0,0,0,0,0,0,0,0,0
 2023-06-27 18:25:16.151,127723.7687,-16318.38278,-80656.29222,-119869.6562,-8365.766211,-63052.46062,22305.67751,-3066.569932,0.344,-0.07,0.922,192,0,0,0,0,0,0,0,0,0,0
 2023-06-27 18:25:16.151,113916.962,-28124.50714,-88580.70088,-125772.1708,-20046.45259,-74700.71461,16080.20259,-21466.79419,0.344,-0.07,0.922,192,0,0,0,0,0,0,0,0,0,0
 2023-06-27 18:25:16.151,96307.09545,-43480.26734,-99311.23696,-134265.5208,-33823.24086,-90865.29504,7542.171483,-42572.58535,0.344,-0.07,0.922,192,10,192,253,208,28,208,0,0,0,0
 2023-06-27 18:25:16.151,99007.52145,-41359.1315,-98154.60123,-133689.2258,-30877.4821,-89354.16065,8410.939087,-37572.29895,0.344,-0.07,0.922,192,0,0,0,0,0,0,0,0,0,0
 2023-06-27 18:25:16.151,119034.8633,-24047.50425,-86265.48484,-124532.1631,-14622.71239,-71653.43424,17809.51235,-12321.13091,0.344,-0.07,0.922,192,0,0,0,0,0,0,0,0,0,0
 2023-06-27 18:25:16.151,127799.3176,-16257.34016,-80620.57413,-119849.2938,-8297.705149,-62991.10508,22352.54912,-2945.423477,0.344,-0.07,0.922,192,0,0,0,0,0,0,0,0,0,0
 2023-06-27 18:25:16.151,114203.1985,-27878.36973,-88414.87329,-125646.3975,-19816.11786,-74437.23225,16228.23819,-21097.63278,0.344,-0.07,0.922,192,0,0,0,0,0,0,0,0,0,0
 2023-06-27 18:25:16.151,96417.66952,-43383.75251,-99245.27696,-134213.4859,-33752.45288,-90748.75304,7609.472586,-42449.74017,0.344,-0.07,0.922,192,0,0,0,0,0,0,0,0,0,0
 2023-06-27 18:25:16.151,98873.12041,-41473.14775,-98238.24146,-133755.0516,-31000.97549,-89459.68323,8359.418316,-37748.386,0.344,-0.07,0.922,192,0,0,0,0,0,0,0,0,0,0
 2023-06-27 18:25:16.151,118842.1689,-24214.58354,-86387.19009,-124630.1084,-14778.34759,-71820.40177,17728.7108,-12541.385,0.344,-0.07,0.922,192,0,0,0,0,0,0,0,0,0,0
 2023-06-27 18:25:16.151,127820.7082,-16241.62689,-80610.31468,-119848.1986,-8278.23678,-62975.86119,22374.23031,-2895.690846,0.344,-0.07,0.922,192,0,0,0,0,0,0,0,0,0,0
 2023-06-27 18:25:16.151,114371.0377,-27732.18933,-88310.20007,-125572.0109,-19687.28241,-74286.58149,16322.80842,-20884.15127,0.344,-0.07,0.922,192,0,0,0,0,0,0,0,0,0,0
 2023-06-27 18:25:16.151,96438.30019,-43359.00913,-99223.59577,-134199.5831,-33742.79693,-90715.18072,7637.389915,-42429.73535,0.344,-0.068,0.92,192,10,192,253,224,28,192,0,0,0,0
 2023-06-27 18:25:16.151,98668.73606,-41642.05988,-98351.87773,-133844.4586,-31162.91388,-89623.05213,8278.728518,-37993.36111,0.344,-0.068,0.92,192,0,0,0,0,0,0,0,0,0,0
 2023-06-27 18:25:16.151,118605.0393,-24417.31386,-86530.93416,-124746.941,-14958.79322,-72030.55287,17624.3505,-12804.6662,0.344,-0.068,0.92,192,0,0,0,0,0,0,0,0,0,0
 2023-06-27 18:25:16.151,127819.3671,-16245.06906,-80622.87636,-119862.1237,-8272.872361,-62990.21101,22377.73953,-2864.130183,0.344,-0.068,0.92,192,0,0,0,0,0,0,0,0,0,0
 2023-06-27 18:25:16.151,114561.8545,-27567.74754,-88205.5045,-125491.8352,-19533.48005,-74121.37975,16421.78195,-20625.94391,0.344,-0.068,0.92,192,0,0,0,0,0,0,0,0,0,0
 2023-06-27 18:25:16.151,96487.13875,-43315.24441,-99200.55112,-134178.416,-33712.3315,-90665.35868,7675.097308,-42368.24571,0.344,-0.068,0.92,192,0,0,0,0,0,0,0,0,0,0
 2023-06-27 18:25:16.151,98491.01734,-41795.25874,-98467.16803,-133930.1329,-31311.97766,-89779.00026,8210.823919,-38210.12833,0.344,-0.068,0.92,192,0,0,0,0,0,0,0,0,0,0
 2023-06-27 18:25:16.151,118387.7132,-24608.26482,-86675.14761,-124860.0185,-15128.06298,-72232.23266,17533.73653,-13048.43432,0.344,-0.068,0.92,192,0,0,0,0,0,0,0,0,0,0
