 Timestamp (Formatted), EXG Channel 0, EXG Channel 1, EXG Channel 2, EXG Channel 3, EXG Channel 4, EXG Channel 5, EXG Channel 6, EXG Channel 7, Accel Channel 0, Accel Channel 1, Accel Channel 2, Other, Other.1, Other.2, Other.3, Other.4, Other.5, Other.6, Analog Channel 0, Analog Channel 1, Analog Channel 2, Other.7
 2023-06-27 18:21:41.170,-187500.0224,-187500.0224,-187500.0224,-172405.3529,-186581.9468,-183481.9163,-187500.0224,-187500.0224,0.34,-0.066,0.926,192,10,160,253,240,28,240,0,0,0,0
 2023-06-27 18:21:41.170,-187500.0224,-187500.0224,-187500.0224,-173058.5826,-187500.0224,-184676.9076,-187500.0224,-187500.0224,0.34,-0.066,0.926,192,0,0,0,0,0,0,0,0,0,0
 2023-06-27 18:21:41.170,-187500.0224,-187500.0224,-187500.0224,-172910.2788,-187196.6198,-184396.7285,-187500.0224,-187500.0224,0.34,-0.066,0.926,192,0,0,0,0,0,0,0,0,0,0
 2023-06-27 18:21:41.170,-187500.0224,-187500.0224,-187500.0224,-172122.7598,-185869.6414,-182946.6144,-187500.0224,-187500.0224,0.34,-0.066,0.926,192,0,0,0,0,0,0,0,0,0,0
 2023-06-27 18:21:41.170,-187500.0224,-187500.0224,-187500.0224,-171823.9393,-185507.8337,-182403.6011,-187500.0224,-187500.0224,0.34,-0.066,0.926,192,0,0,0,0,0,0,0,0,0,0
 2023-06-27 18:21:41.170,-187500.0224,-187500.0224,-187500.0224,-172393.5735,-186558.2987,-183458.514,-187500.0224,-187500.0224,0.34,-0.066,0.926,192,0,0,0,0,0,0,0,0,0,0
 2023-06-27 18:21:41.170,-187500.0224,-187500.0224,-187500.0224,-173056.3921,-187500.0224,-184671.3867,-187500.0224,-187500.0224,0.34,-0.066,0.926,192,0,0,0,0,0,0,0,0,0,0
 2023-06-27 18:21:41.171,-187500.0224,-187500.0224,-187500.0224,-172924.2039,-187217.8539,-184420.2425,-187500.0224,-187500.0224,0.34,-0.066,0.926,192,0,0,0,0,0,0,0,0,0,0
 2023-06-27 18:21:41.171,-187500.0224,-187500.0224,-187500.0224,-172139.5236,-185891.859,-182974.7552,-187500.0224,-187500.0224,0.34,-0.066,0.926,192,0,0,0,0,0,0,0,0,0,0
 2023-06-27 18:21:41.171,-187500.0224,-187500.0224,-187500.0224,-171825.9286,-185504.3692,-182404.6516,-187500.0224,-187500.0224,0.34,-0.066,0.926,192,0,0,0,0,0,0,0,0,0,0
 2023-06-27 18:21:41.171,-187500.0224,-187500.0224,-187500.0224,-172385.7951,-186538.3609,-183438.4422,-187500.0224,-187500.0224,0.34,-0.068,0.922,192,10,160,253,224,28,208,0,0,0,0
 2023-06-27 18:21:41.171,-187500.0224,-187500.0224,-187500.0224,-173057.3086,-187500.0224,-184668.6598,-187500.0224,-187500.0224,0.34,-0.068,0.922,192,0,0,0,0,0,0,0,0,0,0
 2023-06-27 18:21:41.171,-187500.0224,-187500.0224,-187500.0224,-172939.0231,-187239.9375,-184444.4271,-187500.0224,-187500.0224,0.34,-0.068,0.922,192,0,0,0,0,0,0,0,0,0,0
 2023-06-27 18:21:41.171,-187500.0224,-187500.0224,-187500.0224,-172157.2485,-185915.3507,-183003.9019,-187500.0224,-187500.0224,0.34,-0.068,0.922,192,0,0,0,0,0,0,0,0,0,0
 2023-06-27 18:21:41.171,-187500.0224,-187500.0224,-187500.0224,-171830.086,-185502.4917,-182406.9092,-187500.0224,-187500.0224,0.34,-0.068,0.922,192,0,0,0,0,0,0,0,0,0,0
 2023-06-27 18:21:41.171,-187500.0224,-187500.0224,-187500.0224,-172371.1771,-186510.4436,-183409.452,-187500.0224,-187500.0224,0.34,-0.068,0.922,192,0,0,0,0,0,0,0,0,0,0
 2023-06-27 18:21:41.171,-187500.0224,-187500.0224,-187500.0224,-173054.3134,-187500.0224,-184660.8591,-187500.0224,-187500.0224,0.34,-0.068,0.922,192,0,0,0,0,0,0,0,0,0,0
 2023-06-27 18:21:41.171,-187500.0224,-187500.0224,-187500.0224,-172951.406,-187260.434,-184466.2201,-187500.0224,-187500.0224,0.34,-0.068,0.922,192,0,0,0,0,0,0,0,0,0,0
 2023-06-27 18:21:41.171,-187500.0224,-187500.0224,-187500.0224,-172174.0794,-185938.7306,-183032.758,-187500.0224,-187500.0224,0.34,-0.068,0.922,192,0,0,0,0,0,0,0,0,0,0
 2023-06-27 18:21:41.171,-187500.0224,-187500.0224,-187500.0224,-171831.9636,-185500.4576,-182409.0326,-187500.0224,-187500.0224,0.34,-0.068,0.922,192,0,0,0,0,0,0,0,0,0,0
 2023-06-27 18:21:41.171,-187500.0224,-187500.0224,-187500.0224,-172360.7388,-186489.3882,-183388.7542,-187500.0224,-187500.0224,0.334,-0.072,0.922,192,10,112,253,192,28,208,0,0,0,0
 2023-06-27 18:21:41.171,-187500.0224,-187500.0224,-187500.0224,-173049.0384,-187500.0224,-184652.6113,-187500.0224,-187500.0224,0.334,-0.072,0.922,192,0,0,0,0,0,0,0,0,0,0
 2023-06-27 18:21:41.171,-187500.0224,-187500.0224,-187500.0224,-172961.1737,-187277.6448,-184485.8002,-187500.0224,-187500.0224,0.334,-0.072,0.922,192,0,0,0,0,0,0,0,0,0,0
 2023-06-27 18:21:41.171,-187500.0224,-187500.0224,-187500.0224,-172186.3505,-185957.2826,-183057.5684,-187500.0224,-187500.0224,0.334,-0.072,0.922,192,0,0,0,0,0,0,0,0,0,0
 2023-06-27 18:21:41.171,-187500.0224,-187500.0224,-187500.0224,-171830.3766,-185493.4615,-182406.7974,-187500.0224,-187500.0224,0.334,-0.072,0.922,192,0,0,0,0,0,0,0,0,0,0
 2023-06-27 18:21:41.171,-187500.0224,-187500.0224,-187500.0224,-172349.5629,-186465.226,-183364.3685,-187500.0224,-187500.0224,0.334,-0.072,0.922,192,0,0,0,0,0,0,0,0,0,0
 2023-06-27 18:21:41.171,-187500.0224,-187500.0224,-187500.0224,-173051.0948,-187500.0224,-184649.5491,-187500.0224,-187500.0224,0.334,-0.072,0.922,192,0,0,0,0,0,0,0,0,0,0
 2023-06-27 18:21:41.171,-187500.0224,-187500.0224,-187500.0224,-172983.3019,-187306.948,-184516.355,-187500.0224,-187500.0224,0.334,-0.072,0.922,192,0,0,0,0,0,0,0,0,0,0
 2023-06-27 18:21:41.171,-187500.0224,-187500.0224,-187500.0224,-172213.1726,-185991.2572,-183096.8181,-187500.0224,-187500.0224,0.334,-0.072,0.922,192,0,0,0,0,0,0,0,0,0,0
 2023-06-27 18:21:41.171,-187500.0224,-187500.0224,-187500.0224,-171838.5126,-185497.619,-182415.3358,-187500.0224,-187500.0224,0.334,-0.072,0.922,192,0,0,0,0,0,0,0,0,0,0
 2023-06-27 18:21:41.171,-187500.0224,-187500.0224,-187500.0224,-172342.7233,-186448.4398,-183348.2305,-187500.0224,-187500.0224,0.338,-0.062,0.92,192,10,144,254,16,28,192,0,0,0,0
 2023-06-27 18:21:41.171,-187500.0224,-187500.0224,-187500.0224,-173052.8829,-187500.0224,-184648.5656,-187500.0224,-187500.0224,0.338,-0.062,0.92,192,0,0,0,0,0,0,0,0,0,0
 2023-06-27 18:21:41.171,-187500.0224,-187500.0224,-187500.0224,-172999.9763,-187330.9985,-184543.0207,-187500.0224,-187500.0224,0.338,-0.062,0.92,192,0,0,0,0,0,0,0,0,0,0
 2023-06-27 18:21:41.171,-187500.0224,-187500.0224,-187500.0224,-172234.8538,-186019.8004,-183131.955,-187500.0224,-187500.0224,0.338,-0.062,0.92,192,0,0,0,0,0,0,0,0,0,0
 2023-06-27 18:21:41.171,-187500.0224,-187500.0224,-187500.0224,-171847.1851,-185501.3741,-182424.5447,-187500.0224,-187500.0224,0.338,-0.062,0.92,192,0,0,0,0,0,0,0,0,0,0
 2023-06-27 18:21:41.171,-187500.0224,-187500.0224,-187500.0224,-172333.7602,-186425.5293,-183325.8564,-187500.0224,-187500.0224,0.338,-0.062,0.92,192,0,0,0,0,0,0,0,0,0,0
 2023-06-27 18:21:41.171,-187500.0224,-187500.0224,-187500.0224,-173051.0054,-187500.0224,-184641.2789,-187500.0224,-187500.0224,0.338,-0.062,0.92,192,0,0,0,0,0,0,0,0,0,0
 2023-06-27 18:21:41.171,-187500.0224,-187500.0224,-187500.0224,-173012.9403,-187350.6903,-184564.4336,-187500.0224,-187500.0224,0.338,-0.062,0.92,192,0,0,0,0,0,0,0,0,0,0
 2023-06-27 18:21:41.171,-187500.0224,-187500.0224,-187500.0224,-172250.6788,-186042.5769,-183160.7888,-187500.0224,-187500.0224,0.338,-0.062,0.92,192,0,0,0,0,0,0,0,0,0,0
 2023-06-27 18:21:41.171,-187500.0224,-187500.0224,-187500.0224,-171849.5097,-185500.033,-182428.3668,-187500.0224,-187500.0224,0.338,-0.062,0.92,192,0,0,0,0,0,0,0,0,0,0
 2023-06-27 18:21:41.171,-187500.0224,-187500.0224,-187500.0224,-172324.3502,-186405.0327,-183306.5222,-187500.0224,-187500.0224,0.338,-0.062,0.92,192,0,0,0,0,0,0,0,0,0,0
 2023-06-27 18:21:41.172,-187500.0224,-187500.0224,-187500.0224,-173047.6303,-187500.0224,-184633.9252,-187500.0224,-187500.0224,0.346,-0.062,0.916,192,10,208,254,16,28,160,0,0,0,0
 2023-06-27 18:21:41.172,-187500.0224,-187500.0224,-187500.0224,-173025.3903,-187369.7564,-184585.869,-187500.0224,-187500.0224,0.346,-0.062,0.916,192,0,0,0,0,0,0,0,0,0,0
 2023-06-27 18:21:41.172,-187500.0224,-187500.0224,-187500.0224,-172270.773,-186069.8907,-183194.7411,-187500.0224,-187500.0224,0.346,-0.062,0.916,192,0,0,0,0,0,0,0,0,0,0
 2023-06-27 18:21:41.172,-187500.0224,-187500.0224,-187500.0224,-171850.5826,-185496.1214,-182429.9538,-187500.0224,-187500.0224,0.346,-0.062,0.916,192,0,0,0,0,0,0,0,0,0,0
 2023-06-27 18:21:41.172,-187500.0224,-187500.0224,-187500.0224,-172307.2958,-186373.8074,-183275.6321,-187500.0224,-187500.0224,0.346,-0.062,0.916,192,0,0,0,0,0,0,0,0,0,0
 2023-06-27 18:21:41.172,-187500.0224,-187500.0224,-187500.0224,-173038.9801,-187500.0224,-184619.1954,-187500.0224,-187500.0224,0.346,-0.062,0.916,192,0,0,0,0,0,0,0,0,0,0
 2023-06-27 18:21:41.172,-187500.0224,-187500.0224,-187500.0224,-173035.8956,-187386.9225,-184604.5103,-187500.0224,-187500.0224,0.346,-0.062,0.916,192,0,0,0,0,0,0,0,0,0,0
 2023-06-27 18:21:41.172,-187500.0224,-187500.0224,-187500.0224,-172287.4027,-186094.6564,-183225.1842,-187500.0224,-187500.0224,0.346,-0.062,0.916,192,0,0,0,0,0,0,0,0,0,0
 2023-06-27 18:21:41.172,-187500.0224,-187500.0224,-187500.0224,-171856.1035,-185498.4907,-182437.464,-187500.0224,-187500.0224,0.346,-0.062,0.916,192,0,0,0,0,0,0,0,0,0,0
 2023-06-27 18:21:41.172,-187500.0224,-187500.0224,-187500.0224,-172302.0878,-186357.8482,-183261.0587,-187500.0224,-187500.0224,0.346,-0.062,0.916,192,0,0,0,0,0,0,0,0,0,0
 2023-06-27 18:21:41.172,-187500.0224,-187500.0224,-187500.0224,-173040.6118,-187500.0224,-184616.8485,-187500.0224,-187500.0224,0.34,-0.062,0.916,192,10,160,254,16,28,160,0,0,0,0
 2023-06-27 18:21:41.172,-187500.0224,-187500.0224,-187500.0224,-173050.0889,-187407.3073,-184627.0856,-187500.0224,-187500.0224,0.34,-0.062,0.916,192,0,0,0,0,0,0,0,0,0,0
 2023-06-27 18:21:41.172,-187500.0224,-187500.0224,-187500.0224,-172310.0897,-186123.9596,-183260.8799,-187500.0224,-187500.0224,0.34,-0.062,0.916,192,0,0,0,0,0,0,0,0,0,0
 2023-06-27 18:21:41.172,-187500.0224,-187500.0224,-187500.0224,-171861.7361,-185499.2954,-182443.499,-187500.0224,-187500.0224,0.34,-0.062,0.916,192,0,0,0,0,0,0,0,0,0,0
 2023-06-27 18:21:41.172,-187500.0224,-187500.0224,-187500.0224,-172290.3979,-186333.5519,-183237.7906,-187500.0224,-187500.0224,0.34,-0.062,0.916,192,0,0,0,0,0,0,0,0,0,0
 2023-06-27 18:21:41.172,-187500.0224,-187500.0224,-187500.0224,-173036.4097,-187500.0224,-184607.8631,-187500.0224,-187500.0224,0.34,-0.062,0.916,192,0,0,0,0,0,0,0,0,0,0
 2023-06-27 18:21:41.172,-187500.0224,-187500.0224,-187500.0224,-173063.7906,-187427.2451,-184648.9903,-187500.0224,-187500.0224,0.34,-0.062,0.916,192,0,0,0,0,0,0,0,0,0,0
 2023-06-27 18:21:41.172,-187500.0224,-187500.0224,-187500.0224,-172329.7593,-186151.4522,-183294.3852,-187500.0224,-187500.0224,0.34,-0.062,0.916,192,0,0,0,0,0,0,0,0,0,0
 2023-06-27 18:21:41.172,-187500.0224,-187500.0224,-187500.0224,-171867.9946,-185502.4022,-182452.395,-187500.0224,-187500.0224,0.34,-0.062,0.916,192,0,0,0,0,0,0,0,0,0,0
 2023-06-27 18:21:41.172,-187500.0224,-187500.0224,-187500.0224,-172280.809,-186310.6637,-183216.2211,-187500.0224,-187500.0224,0.34,-0.062,0.916,192,0,0,0,0,0,0,0,0,0,0
 2023-06-27 18:21:41.172,-187500.0224,-187500.0224,-187500.0224,-173035.2921,-187500.0224,-184600.3082,-187500.0224,-187500.0224,0.346,-0.062,0.916,192,10,208,254,16,28,160,0,0,0,0
 2023-06-27 18:21:41.172,-187500.0224,-187500.0224,-187500.0224,-173079.2803,-187448.0545,-184671.275,-187500.0224,-187500.0224,0.346,-0.062,0.916,192,0,0,0,0,0,0,0,0,0,0
 2023-06-27 18:21:41.172,-187500.0224,-187500.0224,-187500.0224,-172354.5027,-186183.3034,-183332.0032,-187500.0224,-187500.0224,0.346,-0.062,0.916,192,0,0,0,0,0,0,0,0,0,0
 2023-06-27 18:21:41.172,-187500.0224,-187500.0224,-187500.0224,-171879.3493,-185510.203,-182465.2025,-187500.0224,-187500.0224,0.346,-0.062,0.916,192,0,0,0,0,0,0,0,0,0,0
 2023-06-27 18:21:41.172,-187500.0224,-187500.0224,-187500.0224,-172273.0976,-186291.2177,-183197.6021,-187500.0224,-187500.0224,0.346,-0.062,0.916,192,0,0,0,0,0,0,0,0,0,0
 2023-06-27 18:21:41.172,-187500.0224,-187500.0224,-187500.0224,-173031.0676,-187500.0224,-184591.0099,-187500.0224,-187500.0224,0.346,-0.062,0.916,192,0,0,0,0,0,0,0,0,0,0
 2023-06-27 18:21:41.172,-187500.0224,-187500.0224,-187500.0224,-173091.775,-187467.2323,-184692.4421,-187500.0224,-187500.0224,0.346,-0.062,0.916,192,0,0,0,0,0,0,0,0,0,0
 2023-06-27 18:21:41.172,-187500.0224,-187500.0224,-187500.0224,-172372.6523,-186210.3043,-183365.4414,-187500.0224,-187500.0224,0.346,-0.062,0.916,192,0,0,0,0,0,0,0,0,0,0
 2023-06-27 18:21:41.172,-187500.0224,-187500.0224,-187500.0224,-171886.3007,-185515.098,-182476.4454,-187500.0224,-187500.0224,0.346,-0.062,0.916,192,0,0,0,0,0,0,0,0,0,0
 2023-06-27 18:21:41.172,-187500.0224,-187500.0224,-187500.0224,-172270.4154,-186278.2313,-183187.3874,-187500.0224,-187500.0224,0.346,-0.062,0.916,192,0,0,0,0,0,0,0,0,0,0
 2023-06-27 18:21:41.172,-187500.0224,-187500.0224,-187500.0224,-173032.0064,-187500.0224,-184588.1041,-187500.0224,-187500.0224,0.348,-0.064,0.922,192,10,224,254,0,28,208,0,0,0,0
 2023-06-27 18:21:41.172,-187500.0224,-187500.0224,-187500.0224,-173103.3532,-187483.4821,-184711.4634,-187500.0224,-187500.0224,0.348,-0.064,0.922,192,0,0,0,0,0,0,0,0,0,0
 2023-06-27 18:21:41.648,-187500.0224,-187500.0224,-187500.0224,-172390.6901,-186235.5618,-183397.4491,-187500.0224,-187500.0224,0.348,-0.064,0.922,192,0,0,0,0,0,0,0,0,0,0
 2023-06-27 18:21:41.648,-187500.0224,-187500.0224,-187500.0224,-171890.3016,-185515.1427,-182482.5922,-187500.0224,-187500.0224,0.348,-0.064,0.922,192,0,0,0,0,0,0,0,0,0,0
 2023-06-27 18:21:41.648,-187500.0224,-187500.0224,-187500.0224,-172258.6807,-186253.3091,-183163.9627,-187500.0224,-187500.0224,0.348,-0.064,0.922,192,0,0,0,0,0,0,0,0,0,0
 2023-06-27 18:21:41.648,-187500.0224,-187500.0224,-187500.0224,-173024.4291,-187496.2896,-184572.972,-187500.0224,-187500.0224,0.348,-0.064,0.922,192,0,0,0,0,0,0,0,0,0,0
 2023-06-27 18:21:41.648,-187500.0224,-187500.0224,-187500.0224,-173110.1257,-187494.6356,-184723.6228,-187500.0224,-187500.0224,0.348,-0.064,0.922,192,0,0,0,0,0,0,0,0,0,0
 2023-06-27 18:21:41.648,-187500.0224,-187500.0224,-187500.0224,-172412.7513,-186265.8261,-183432.9213,-187500.0224,-187500.0224,0.348,-0.064,0.922,192,0,0,0,0,0,0,0,0,0,0
 2023-06-27 18:21:41.649,-187500.0224,-187500.0224,-187500.0224,-171902.6621,-185525.8269,-182498.7525,-187500.0224,-187500.0224,0.348,-0.064,0.922,192,0,0,0,0,0,0,0,0,0,0
 2023-06-27 18:21:41.649,-187500.0224,-187500.0224,-187500.0224,-172252.0646,-186235.8971,-183148.5624,-187500.0224,-187500.0224,0.348,-0.064,0.922,192,0,0,0,0,0,0,0,0,0,0
 2023-06-27 18:21:41.649,-187500.0224,-187500.0224,-187500.0224,-173023.0657,-187489.9194,-184566.3559,-187500.0224,-187500.0224,0.346,-0.072,0.918,192,10,208,253,192,28,176,0,0,0,0
 2023-06-27 18:21:41.649,-187500.0224,-187500.0224,-187500.0224,-173123.6709,-187500.0224,-184743.7393,-187500.0224,-187500.0224,0.346,-0.072,0.918,192,0,0,0,0,0,0,0,0,0,0
 2023-06-27 18:21:41.649,-187500.0224,-187500.0224,-187500.0224,-172433.3373,-186294.9057,-183467.9241,-187500.0224,-187500.0224,0.346,-0.072,0.918,192,0,0,0,0,0,0,0,0,0,0
 2023-06-27 18:21:41.649,-187500.0224,-187500.0224,-187500.0224,-171906.9984,-185528.0844,-182507.0226,-187500.0224,-187500.0224,0.346,-0.072,0.918,192,0,0,0,0,0,0,0,0,0,0
 2023-06-27 18:21:41.649,-187500.0224,-187500.0224,-187500.0224,-172242.6992,-186214.283,-183128.8258,-187500.0224,-187500.0224,0.346,-0.072,0.918,192,0,0,0,0,0,0,0,0,0,0
 2023-06-27 18:21:41.649,-187500.0224,-187500.0224,-187500.0224,-173017.4554,-187478.6094,-184554.2636,-187500.0224,-187500.0224,0.346,-0.072,0.918,192,0,0,0,0,0,0,0,0,0,0
 2023-06-27 18:21:41.649,-187500.0224,-187500.0224,-187500.0224,-173134.7797,-187500.0224,-184761.2184,-187500.0224,-187500.0224,0.346,-0.072,0.918,192,0,0,0,0,0,0,0,0,0,0
 2023-06-27 18:21:41.649,-187500.0224,-187500.0224,-187500.0224,-172451.7775,-186321.3925,-183500.3118,-187500.0224,-187500.0224,0.346,-0.072,0.918,192,0,0,0,0,0,0,0,0,0,0
 2023-06-27 18:21:41.649,-187500.0224,-187500.0224,-187500.0224,-171916.9449,-185536.6675,-182521.7971,-187500.0224,-187500.0224,0.346,-0.072,0.918,192,0,0,0,0,0,0,0,0,0,0
 2023-06-27 18:21:41.649,-187500.0224,-187500.0224,-187500.0224,-172240.1288,-186203.1071,-183120.8909,-187500.0224,-187500.0224,0.346,-0.072,0.918,192,0,0,0,0,0,0,0,0,0,0
 2023-06-27 18:21:41.649,-187500.0224,-187500.0224,-187500.0224,-173017.5895,-187474.7425,-184551.8049,-187500.0224,-187500.0224,0.344,-0.072,0.92,192,10,192,253,192,28,192,0,0,0,0
 2023-06-27 18:21:41.649,-187500.0224,-187500.0224,-187500.0224,-173147.9449,-187500.0224,-184782.3632,-187500.0224,-187500.0224,0.344,-0.072,0.92,192,0,0,0,0,0,0,0,0,0,0
 2023-06-27 18:21:41.649,-187500.0224,-187500.0224,-187500.0224,-172474.9786,-186353.3108,-183539.785,-187500.0224,-187500.0224,0.344,-0.072,0.92,192,0,0,0,0,0,0,0,0,0,0
 2023-06-27 18:21:41.649,-187500.0224,-187500.0224,-187500.0224,-171927.3608,-185545.4294,-182538.2257,-187500.0224,-187500.0224,0.344,-0.072,0.92,192,0,0,0,0,0,0,0,0,0,0
 2023-06-27 18:21:41.649,-187500.0224,-187500.0224,-187500.0224,-172232.7974,-186183.147,-183104.4177,-187500.0224,-187500.0224,0.344,-0.072,0.92,192,0,0,0,0,0,0,0,0,0,0
 2023-06-27 18:21:41.649,-187500.0224,-187500.0224,-187500.0224,-173010.4593,-187460.1468,-184537.4551,-187500.0224,-187500.0224,0.344,-0.072,0.92,192,0,0,0,0,0,0,0,0,0,0
 2023-06-27 18:21:41.649,-187500.0224,-187500.0224,-187500.0224,-173154.3151,-187500.0224,-184794.6119,-187500.0224,-187500.0224,0.344,-0.072,0.92,192,0,0,0,0,0,0,0,0,0,0
 2023-06-27 18:21:41.649,-187500.0224,-187500.0224,-187500.0224,-172493.6646,-186381.5634,-183574.7431,-187500.0224,-187500.0224,0.344,-0.072,0.92,192,0,0,0,0,0,0,0,0,0,0
 2023-06-27 18:21:41.649,-187500.0224,-187500.0224,-187500.0224,-171933.6193,-185550.0115,-182549.938,-187500.0224,-187500.0224,0.344,-0.072,0.92,192,0,0,0,0,0,0,0,0,0,0
 2023-06-27 18:21:41.649,-187500.0224,-187500.0224,-187500.0224,-172218.4252,-186155.1626,-183079.2943,-187500.0224,-187500.0224,0.344,-0.072,0.92,192,0,0,0,0,0,0,0,0,0,0
 2023-06-27 18:21:41.649,-187500.0224,-187500.0224,-187500.0224,-173000.1775,-187441.3937,-184517.5397,-187500.0224,-187500.0224,0.348,-0.066,0.916,192,10,224,253,240,28,160,0,0,0,0
 2023-06-27 18:21:41.649,-187500.0224,-187500.0224,-187500.0224,-173161.6242,-187500.0224,-184805.7431,-187500.0224,-187500.0224,0.348,-0.066,0.916,192,0,0,0,0,0,0,0,0,0,0
 2023-06-27 18:21:41.649,-187500.0224,-187500.0224,-187500.0224,-172513.9153,-186410.2854,-183608.5166,-187500.0224,-187500.0224,0.348,-0.066,0.916,192,0,0,0,0,0,0,0,0,0,0
 2023-06-27 18:21:41.649,-187500.0224,-187500.0224,-187500.0224,-171945.5328,-185561.1203,-182566.7241,-187500.0224,-187500.0224,0.348,-0.066,0.916,192,0,0,0,0,0,0,0,0,0,0
 2023-06-27 18:21:41.649,-187500.0224,-187500.0224,-187500.0224,-172217.1735,-186143.8079,-183070.4207,-187500.0224,-187500.0224,0.348,-0.066,0.916,192,0,0,0,0,0,0,0,0,0,0
 2023-06-27 18:21:41.649,-187500.0224,-187500.0224,-187500.0224,-172999.127,-187434.2635,-184510.2977,-187500.0224,-187500.0224,0.348,-0.066,0.916,192,0,0,0,0,0,0,0,0,0,0
 2023-06-27 18:21:41.649,-187500.0224,-187500.0224,-187500.0224,-173173.94,-187500.0224,-184823.3339,-187500.0224,-187500.0224,0.348,-0.066,0.916,192,0,0,0,0,0,0,0,0,0,0
 2023-06-27 18:21:41.649,-187500.0224,-187500.0224,-187500.0224,-172534.9483,-186439.4544,-183643.1841,-187500.0224,-187500.0224,0.348,-0.066,0.916,192,0,0,0,0,0,0,0,0,0,0
 2023-06-27 18:21:41.649,-187500.0224,-187500.0224,-187500.0224,-171953.0206,-185566.3059,-182577.6765,-187500.0224,-187500.0224,0.348,-0.066,0.916,192,0,0,0,0,0,0,0,0,0,0
 2023-06-27 18:21:41.649,-187500.0224,-187500.0224,-187500.0224,-172202.8461,-186114.5048,-183042.1681,-187500.0224,-187500.0224,0.348,-0.066,0.916,192,0,0,0,0,0,0,0,0,0,0
 2023-06-27 18:21:41.649,-187500.0224,-187500.0224,-187500.0224,-172983.6372,-187409.4084,-184482.3357,-187500.0224,-187500.0224,0.346,-0.066,0.916,192,10,208,253,240,28,160,0,0,0,0
 2023-06-27 18:21:41.649,-187500.0224,-187500.0224,-187500.0224,-173175.147,-187500.0224,-184826.7761,-187500.0224,-187500.0224,0.346,-0.066,0.916,192,0,0,0,0,0,0,0,0,0,0
 2023-06-27 18:21:41.649,-187500.0224,-187500.0224,-187500.0224,-172548.8958,-186462.9908,-183670.4756,-187500.0224,-187500.0224,0.346,-0.066,0.916,192,0,0,0,0,0,0,0,0,0,0
 2023-06-27 18:21:41.649,-187500.0224,-187500.0224,-187500.0224,-171957.3122,-185569.8598,-182585.7902,-187500.0224,-187500.0224,0.346,-0.066,0.916,192,0,0,0,0,0,0,0,0,0,0
 2023-06-27 18:21:41.649,-187500.0224,-187500.0224,-187500.0224,-172193.2795,-186093.9412,-183022.8785,-187500.0224,-187500.0224,0.346,-0.066,0.916,192,0,0,0,0,0,0,0,0,0,0
 2023-06-27 18:21:41.649,-187500.0224,-187500.0224,-187500.0224,-172975.3224,-187393.9633,-184464.9237,-187500.0224,-187500.0224,0.346,-0.066,0.916,192,0,0,0,0,0,0,0,0,0,0
 2023-06-27 18:21:41.649,-187500.0224,-187500.0224,-187500.0224,-173179.3938,-187500.0224,-184834.1745,-187500.0224,-187500.0224,0.346,-0.066,0.916,192,0,0,0,0,0,0,0,0,0,0
 2023-06-27 18:21:41.649,-187500.0224,-187500.0224,-187500.0224,-172566.129,-186489.0306,-183700.6281,-187500.0224,-187500.0224,0.346,-0.066,0.916,192,0,0,0,0,0,0,0,0,0,0
 2023-06-27 18:21:41.649,-187500.0224,-187500.0224,-187500.0224,-171962.386,-185574.196,-182594.8426,-187500.0224,-187500.0224,0.346,-0.066,0.916,192,0,0,0,0,0,0,0,0,0,0
 2023-06-27 18:21:41.649,-187500.0224,-187500.0224,-187500.0224,-172181.0308,-186071.5447,-183001.6667,-187500.0224,-187500.0224,0.346,-0.066,0.916,192,0,0,0,0,0,0,0,0,0,0
 2023-06-27 18:21:41.649,-187500.0224,-187500.0224,-187500.0224,-172965.4876,-187377.9371,-184447.1987,-187500.0224,-187500.0224,0.344,-0.07,0.914,192,10,192,253,208,28,144,0,0,0,0
 2023-06-27 18:21:41.649,-187500.0224,-187500.0224,-187500.0224,-173188.7592,-187500.0224,-184848.6137,-187500.0224,-187500.0224,0.344,-0.07,0.914,192,0,0,0,0,0,0,0,0,0,0
 2023-06-27 18:21:41.649,-187500.0224,-187500.0224,-187500.0224,-172586.0667,-186519.1831,-183735.8098,-187500.0224,-187500.0224,0.344,-0.07,0.914,192,0,0,0,0,0,0,0,0,0,0
 2023-06-27 18:21:41.649,-187500.0224,-187500.0224,-187500.0224,-171972.3772,-185584.5896,-182611.2265,-187500.0224,-187500.0224,0.344,-0.07,0.914,192,0,0,0,0,0,0,0,0,0,0
 2023-06-27 18:21:41.649,-187500.0224,-187500.0224,-187500.0224,-172176.851,-186057.4408,-182990.4685,-187500.0224,-187500.0224,0.344,-0.07,0.914,192,0,0,0,0,0,0,0,0,0,0
 2023-06-27 18:21:41.649,-187500.0224,-187500.0224,-187500.0224,-172960.8608,-187366.5377,-184435.4417,-187500.0224,-187500.0224,0.344,-0.07,0.914,192,0,0,0,0,0,0,0,0,0,0
 2023-06-27 18:21:41.649,-187500.0224,-187500.0224,-187500.0224,-173196.4929,-187500.0224,-184861.3319,-187500.0224,-187500.0224,0.344,-0.07,0.914,192,0,0,0,0,0,0,0,0,0,0
 2023-06-27 18:21:41.649,-187500.0224,-187500.0224,-187500.0224,-172606.3174,-186548.5309,-183770.4997,-187500.0224,-187500.0224,0.344,-0.07,0.914,192,0,0,0,0,0,0,0,0,0,0
 2023-06-27 18:21:41.649,-187500.0224,-187500.0224,-187500.0224,-171986.5929,-185598.5371,-182631.3654,-187500.0224,-187500.0224,0.344,-0.07,0.914,192,0,0,0,0,0,0,0,0,0,0
 2023-06-27 18:21:41.650,-187500.0224,-187500.0224,-187500.0224,-172176.3816,-186046.9131,-182982.8466,-187500.0224,-187500.0224,0.344,-0.07,0.914,192,0,0,0,0,0,0,0,0,0,0
 2023-06-27 18:21:41.650,-187500.0224,-187500.0224,-187500.0224,-172956.5469,-187354.8254,-184423.5953,-187500.0224,-187500.0224,0.34,-0.066,0.922,192,10,160,253,240,28,208,0,0,0,0
 2023-06-27 18:21:41.650,-187500.0224,-187500.0224,-187500.0224,-173207.0876,-187500.0224,-184875.9499,-187500.0224,-187500.0224,0.34,-0.066,0.922,192,0,0,0,0,0,0,0,0,0,0
 2023-06-27 18:21:41.650,-187500.0224,-187500.0224,-187500.0224,-172631.4631,-186582.8409,-183810.2411,-187500.0224,-187500.0224,0.34,-0.066,0.922,192,0,0,0,0,0,0,0,0,0,0
 2023-06-27 18:21:41.650,-187500.0224,-187500.0224,-187500.0224,-171997.2324,-185608.2378,-182647.1234,-187500.0224,-187500.0224,0.34,-0.066,0.922,192,0,0,0,0,0,0,0,0,0,0
 2023-06-27 18:21:41.650,-187500.0224,-187500.0224,-187500.0224,-172165.6975,-186023.4214,-182961.3442,-187500.0224,-187500.0224,0.34,-0.066,0.922,192,0,0,0,0,0,0,0,0,0,0
 2023-06-27 18:21:41.650,-187500.0224,-187500.0224,-187500.0224,-172945.9298,-187334.7312,-184401.1541,-187500.0224,-187500.0224,0.34,-0.066,0.922,192,0,0,0,0,0,0,0,0,0,0
 2023-06-27 18:21:41.650,-187500.0224,-187500.0224,-187500.0224,-173210.9992,-187500.0224,-184882.186,-187500.0224,-187500.0224,0.34,-0.066,0.922,192,0,0,0,0,0,0,0,0,0,0
 2023-06-27 18:21:41.650,-187500.0224,-187500.0224,-187500.0224,-172649.3892,-186610.3335,-183841.6006,-187500.0224,-187500.0224,0.34,-0.066,0.922,192,0,0,0,0,0,0,0,0,0,0
 2023-06-27 18:21:41.650,-187500.0224,-187500.0224,-187500.0224,-172007.8718,-185619.7713,-182663.8425,-187500.0224,-187500.0224,0.34,-0.066,0.922,192,0,0,0,0,0,0,0,0,0,0
 2023-06-27 18:21:41.650,-187500.0224,-187500.0224,-187500.0224,-172163.8199,-186012.402,-182952.7164,-187500.0224,-187500.0224,0.34,-0.066,0.922,192,0,0,0,0,0,0,0,0,0,0
 2023-06-27 18:21:41.650,-187500.0224,-187500.0224,-187500.0224,-172941.1018,-187322.1695,-184387.8996,-187500.0224,-187500.0224,0.34,-0.068,0.922,192,10,160,253,224,28,208,0,0,0,0
 2023-06-27 18:21:41.650,-187500.0224,-187500.0224,-187500.0224,-173219.761,-187500.0224,-184894.4571,-187500.0224,-187500.0224,0.34,-0.068,0.922,192,0,0,0,0,0,0,0,0,0,0
 2023-06-27 18:21:41.650,-187500.0224,-187500.0224,-187500.0224,-172668.6117,-186639.1226,-183875.0388,-187500.0224,-187500.0224,0.34,-0.068,0.922,192,0,0,0,0,0,0,0,0,0,0
 2023-06-27 18:21:41.650,-187500.0224,-187500.0224,-187500.0224,-172015.0914,-185628.0638,-182677.8794,-187500.0224,-187500.0224,0.34,-0.068,0.922,192,0,0,0,0,0,0,0,0,0,0
 2023-06-27 18:21:41.650,-187500.0224,-187500.0224,-187500.0224,-172157.472,-185997.0464,-182940.4453,-187500.0224,-187500.0224,0.34,-0.068,0.922,192,0,0,0,0,0,0,0,0,0,0
 2023-06-27 18:21:41.650,-187500.0224,-187500.0224,-187500.0224,-172934.7987,-187308.0432,-184373.7956,-187500.0224,-187500.0224,0.34,-0.068,0.922,192,0,0,0,0,0,0,0,0,0,0
 2023-06-27 18:21:41.650,-187500.0224,-187500.0224,-187500.0224,-173227.4053,-187500.0224,-184905.6554,-187500.0224,-187500.0224,0.34,-0.068,0.922,192,0,0,0,0,0,0,0,0,0,0
 2023-06-27 18:21:41.650,-187500.0224,-187500.0224,-187500.0224,-172687.566,-186667.3305,-183908.6558,-187500.0224,-187500.0224,0.34,-0.068,0.922,192,0,0,0,0,0,0,0,0,0,0
 2023-06-27 18:21:41.650,-187500.0224,-187500.0224,-187500.0224,-172026.2896,-185639.5526,-182695.8278,-187500.0224,-187500.0224,0.34,-0.068,0.922,192,0,0,0,0,0,0,0,0,0,0
 2023-06-27 18:21:41.650,-187500.0224,-187500.0224,-187500.0224,-172152.13,-185982.8083,-182929.6047,-187500.0224,-187500.0224,0.34,-0.068,0.922,192,0,0,0,0,0,0,0,0,0,0
 2023-06-27 18:21:41.650,-187500.0224,-187500.0224,-187500.0224,-172924.4721,-187290.3406,-184356.3389,-187500.0224,-187500.0224,0.342,-0.066,0.924,192,10,176,253,240,28,224,0,0,0,0
 2023-06-27 18:21:41.650,-187500.0224,-187500.0224,-187500.0224,-173231.5628,-187500.0224,-184913.5008,-187500.0224,-187500.0224,0.342,-0.066,0.924,192,0,0,0,0,0,0,0,0,0,0
 2023-06-27 18:21:41.650,-187500.0224,-187500.0224,-187500.0224,-172706.2074,-186695.4266,-183942.3846,-187500.0224,-187500.0224,0.342,-0.066,0.924,192,0,0,0,0,0,0,0,0,0,0
 2023-06-27 18:21:41.650,-187500.0224,-187500.0224,-187500.0224,-172035.968,-185650.1026,-182713.3739,-187500.0224,-187500.0224,0.342,-0.066,0.924,192,0,0,0,0,0,0,0,0,0,0
 2023-06-27 18:21:41.650,-187500.0224,-187500.0224,-187500.0224,-172149.7607,-185971.6995,-182922.8321,-187500.0224,-187500.0224,0.342,-0.066,0.924,192,0,0,0,0,0,0,0,0,0,0
 2023-06-27 18:21:41.650,-187500.0224,-187500.0224,-187500.0224,-172920.6053,-187279.1424,-184346.2806,-187500.0224,-187500.0224,0.342,-0.066,0.924,192,0,0,0,0,0,0,0,0,0,0
 2023-06-27 18:21:41.650,-187500.0224,-187500.0224,-187500.0224,-173240.3693,-187500.0224,-184927.1578,-187500.0224,-187500.0224,0.342,-0.066,0.924,192,0,0,0,0,0,0,0,0,0,0
 2023-06-27 18:21:41.650,-187500.0224,-187500.0224,-187500.0224,-172728.8273,-186727.1661,-183980.8072,-187500.0224,-187500.0224,0.342,-0.066,0.924,192,0,0,0,0,0,0,0,0,0,0
 2023-06-27 18:21:41.650,-187500.0224,-187500.0224,-187500.0224,-172052.5082,-185666.8217,-182737.7597,-187500.0224,-187500.0224,0.342,-0.066,0.924,192,0,0,0,0,0,0,0,0,0,0
 2023-06-27 18:21:41.650,-187500.0224,-187500.0224,-187500.0224,-172143.1893,-185952.2982,-182907.2083,-187500.0224,-187500.0224,0.342,-0.066,0.924,192,0,0,0,0,0,0,0,0,0,0
 2023-06-27 18:21:41.650,-187500.0224,-187500.0224,-187500.0224,-172907.753,-187253.4603,-184319.2797,-187500.0224,-187500.0224,0.344,-0.062,0.922,192,10,192,254,16,28,208,0,0,0,0
 2023-06-27 18:21:41.650,-187500.0224,-187500.0224,-187500.0224,-173241.2634,-187500.0224,-184928.32,-187500.0224,-187500.0224,0.344,-0.062,0.922,192,0,0,0,0,0,0,0,0,0,0
 2023-06-27 18:21:41.650,-187500.0224,-187500.0224,-187500.0224,-172742.7078,-186750.1884,-184007.3611,-187500.0224,-187500.0224,0.344,-0.062,0.922,192,0,0,0,0,0,0,0,0,0,0
 2023-06-27 18:21:41.650,-187500.0224,-187500.0224,-187500.0224,-172057.8503,-185673.6166,-182749.6732,-187500.0224,-187500.0224,0.344,-0.062,0.922,192,0,0,0,0,0,0,0,0,0,0
 2023-06-27 18:21:41.650,-187500.0224,-187500.0224,-187500.0224,-172138.853,-185939.6024,-182897.217,-187500.0224,-187500.0224,0.344,-0.062,0.922,192,0,0,0,0,0,0,0,0,0,0
 2023-06-27 18:21:41.650,-187500.0224,-187500.0224,-187500.0224,-172900.1758,-187238.3058,-184303.5888,-187500.0224,-187500.0224,0.344,-0.062,0.922,192,0,0,0,0,0,0,0,0,0,0
 2023-06-27 18:21:41.650,-187500.0224,-187500.0224,-187500.0224,-173248.483,-187500.0224,-184938.5348,-187500.0224,-187500.0224,0.344,-0.062,0.922,192,0,0,0,0,0,0,0,0,0,0
 2023-06-27 18:21:41.650,-187500.0224,-187500.0224,-187500.0224,-172765.9983,-186783.1125,-184045.4708,-187500.0224,-187500.0224,0.344,-0.062,0.922,192,0,0,0,0,0,0,0,0,0,0
 2023-06-27 18:21:41.650,-187500.0224,-187500.0224,-187500.0224,-172074.4353,-185691.4533,-182774.3942,-187500.0224,-187500.0224,0.344,-0.062,0.922,192,0,0,0,0,0,0,0,0,0,0
 2023-06-27 18:21:41.650,-187500.0224,-187500.0224,-187500.0224,-172137.1096,-185929.2312,-182890.7574,-187500.0224,-187500.0224,0.344,-0.062,0.922,192,0,0,0,0,0,0,0,0,0,0
 2023-06-27 18:21:41.650,-187500.0224,-187500.0224,-187500.0224,-172893.4703,-187223.2854,-184288.8813,-187500.0224,-187500.0224,0.342,-0.062,0.918,192,10,176,254,16,28,176,0,0,0,0
 2023-06-27 18:21:41.650,-187500.0224,-187500.0224,-187500.0224,-173254.5627,-187500.0224,-184947.4531,-187500.0224,-187500.0224,0.342,-0.062,0.918,192,0,0,0,0,0,0,0,0,0,0
 2023-06-27 18:21:41.651,-187500.0224,-187500.0224,-187500.0224,-172786.1372,-186812.2815,-184080.2278,-187500.0224,-187500.0224,0.342,-0.062,0.918,192,0,0,0,0,0,0,0,0,0,0
 2023-06-27 18:21:41.651,-187500.0224,-187500.0224,-187500.0224,-172085.0971,-185702.5621,-182792.3873,-187500.0224,-187500.0224,0.342,-0.062,0.918,192,0,0,0,0,0,0,0,0,0,0
 2023-06-27 18:21:41.651,-187500.0224,-187500.0224,-187500.0224,-172130.2253,-185911.5062,-182876.6311,-187500.0224,-187500.0224,0.342,-0.062,0.918,192,0,0,0,0,0,0,0,0,0,0
 2023-06-27 18:21:41.651,-187500.0224,-187500.0224,-187500.0224,-172880.2827,-187199.1902,-184263.7803,-187500.0224,-187500.0224,0.342,-0.062,0.918,192,0,0,0,0,0,0,0,0,0,0
 2023-06-27 18:21:41.651,-187500.0224,-187500.0224,-187500.0224,-173259.1001,-187500.0224,-184953.5105,-187500.0224,-187500.0224,0.342,-0.062,0.918,192,0,0,0,0,0,0,0,0,0,0
 2023-06-27 18:21:41.651,-187500.0224,-187500.0224,-187500.0224,-172807.3937,-186842.7693,-184114.873,-187500.0224,-187500.0224,0.342,-0.062,0.918,192,0,0,0,0,0,0,0,0,0,0
 2023-06-27 18:21:41.651,-187500.0224,-187500.0224,-187500.0224,-172098.9999,-185718.6107,-182814.4485,-187500.0224,-187500.0224,0.342,-0.062,0.918,192,0,0,0,0,0,0,0,0,0,0
 2023-06-27 18:21:41.651,-187500.0224,-187500.0224,-187500.0224,-172131.6334,-185906.03,-182874.7535,-187500.0224,-187500.0224,0.342,-0.062,0.918,192,0,0,0,0,0,0,0,0,0,0
 2023-06-27 18:21:41.651,-187500.0224,-187500.0224,-187500.0224,-172880.2157,-187192.0824,-184257.2536,-187500.0224,-187500.0224,0.342,-0.066,0.924,192,10,176,253,240,28,224,0,0,0,0
 2023-06-27 18:21:41.651,-187500.0224,-187500.0224,-187500.0224,-173269.5607,-187500.0224,-184967.9944,-187500.0224,-187500.0224,0.342,-0.066,0.924,192,0,0,0,0,0,0,0,0,0,0
 2023-06-27 18:21:41.651,-187500.0224,-187500.0224,-187500.0224,-172826.3033,-186871.6031,-184149.7417,-187500.0224,-187500.0224,0.342,-0.066,0.924,192,0,0,0,0,0,0,0,0,0,0
 2023-06-27 18:21:41.651,-187500.0224,-187500.0224,-187500.0224,-172111.1369,-185731.977,-182835.3921,-187500.0224,-187500.0224,0.342,-0.066,0.924,192,0,0,0,0,0,0,0,0,0,0
 2023-06-27 18:21:41.651,-187500.0224,-187500.0224,-187500.0224,-172128.6383,-185893.6695,-182866.7963,-187500.0224,-187500.0224,0.342,-0.066,0.924,192,0,0,0,0,0,0,0,0,0,0
 2023-06-27 18:21:41.651,-187500.0224,-187500.0224,-187500.0224,-172870.9621,-187173.1951,-184238.7464,-187500.0224,-187500.0224,0.342,-0.066,0.924,192,0,0,0,0,0,0,0,0,0,0
 2023-06-27 18:21:41.651,-187500.0224,-187500.0224,-187500.0224,-173274.8804,-187500.0224,-184974.7446,-187500.0224,-187500.0224,0.342,-0.066,0.924,192,0,0,0,0,0,0,0,0,0,0
 2023-06-27 18:21:41.651,-187500.0224,-187500.0224,-187500.0224,-172850.7784,-186904.9966,-184188.1867,-187500.0224,-187500.0224,0.342,-0.066,0.924,192,0,0,0,0,0,0,0,0,0,0
 2023-06-27 18:21:41.651,-187500.0224,-187500.0224,-187500.0224,-172127.7442,-185750.1043,-182860.4931,-187500.0224,-187500.0224,0.342,-0.066,0.924,192,0,0,0,0,0,0,0,0,0,0
 2023-06-27 18:21:41.651,-187500.0224,-187500.0224,-187500.0224,-172126.0231,-185882.136,-182859.2414,-187500.0224,-187500.0224,0.342,-0.066,0.924,192,0,0,0,0,0,0,0,0,0,0
 2023-06-27 18:21:41.651,-187500.0224,-187500.0224,-187500.0224,-172861.4179,-187154.1291,-184219.4792,-187500.0224,-187500.0224,0.34,-0.062,0.922,192,10,160,254,16,28,208,0,0,0,0
 2023-06-27 18:21:41.651,-187500.0224,-187500.0224,-187500.0224,-173278.345,-187500.0224,-184980.7796,-187500.0224,-187500.0224,0.34,-0.062,0.922,192,0,0,0,0,0,0,0,0,0,0
 2023-06-27 18:21:42.130,-187500.0224,-187500.0224,-187500.0224,-172867.0505,-186931.081,-184219.5239,-187500.0224,-187500.0224,0.34,-0.062,0.922,192,0,0,0,0,0,0,0,0,0,0
 2023-06-27 18:21:42.130,-187500.0224,-187500.0224,-187500.0224,-172139.5683,-185763.9847,-182881.6155,-187500.0224,-187500.0224,0.34,-0.062,0.922,192,0,0,0,0,0,0,0,0,0,0
 2023-06-27 18:21:42.130,-187500.0224,-187500.0224,-187500.0224,-172122.8939,-185870.759,-182852.4912,-187500.0224,-187500.0224,0.34,-0.062,0.922,192,0,0,0,0,0,0,0,0,0,0
 2023-06-27 18:21:42.130,-187500.0224,-187500.0224,-187500.0224,-172853.7289,-187136.8065,-184202.693,-187500.0224,-187500.0224,0.34,-0.062,0.922,192,0,0,0,0,0,0,0,0,0,0
 2023-06-27 18:21:42.130,-187500.0224,-187500.0224,-187500.0224,-173284.6482,-187500.0224,-184988.8262,-187500.0224,-187500.0224,0.34,-0.062,0.922,192,0,0,0,0,0,0,0,0,0,0
 2023-06-27 18:21:42.130,-187500.0224,-187500.0224,-187500.0224,-172886.6977,-186959.1325,-184252.7386,-187500.0224,-187500.0224,0.34,-0.062,0.922,192,0,0,0,0,0,0,0,0,0,0
 2023-06-27 18:21:42.130,-187500.0224,-187500.0224,-187500.0224,-172151.3253,-185777.284,-182901.8215,-187500.0224,-187500.0224,0.34,-0.062,0.922,192,0,0,0,0,0,0,0,0,0,0
 2023-06-27 18:21:42.130,-187500.0224,-187500.0224,-187500.0224,-172120.7481,-185860.0525,-182845.7633,-187500.0224,-187500.0224,0.34,-0.062,0.922,192,0,0,0,0,0,0,0,0,0,0
 2023-06-27 18:21:42.130,-187500.0224,-187500.0224,-187500.0224,-172842.553,-187115.8182,-184181.4141,-187500.0224,-187500.0224,0.34,-0.06,0.926,192,10,160,254,32,28,240,0,0,0,0
 2023-06-27 18:21:42.130,-187500.0224,-187500.0224,-187500.0224,-173287.3527,-187500.0224,-184992.2907,-187500.0224,-187500.0224,0.34,-0.06,0.926,192,0,0,0,0,0,0,0,0,0,0
 2023-06-27 18:21:42.130,-187500.0224,-187500.0224,-187500.0224,-172908.3342,-186989.732,-184287.4732,-187500.0224,-187500.0224,0.34,-0.06,0.926,192,0,0,0,0,0,0,0,0,0,0
 2023-06-27 18:21:42.130,-187500.0224,-187500.0224,-187500.0224,-172166.7927,-185794.6066,-182925.5143,-187500.0224,-187500.0224,0.34,-0.06,0.926,192,0,0,0,0,0,0,0,0,0,0
 2023-06-27 18:21:42.130,-187500.0224,-187500.0224,-187500.0224,-172118.0212,-185848.3402,-182837.5155,-187500.0224,-187500.0224,0.34,-0.06,0.926,192,0,0,0,0,0,0,0,0,0,0
 2023-06-27 18:21:42.130,-187500.0224,-187500.0224,-187500.0224,-172831.3995,-187093.9582,-184158.7495,-187500.0224,-187500.0224,0.34,-0.06,0.926,192,0,0,0,0,0,0,0,0,0,0
 2023-06-27 18:21:42.130,-187500.0224,-187500.0224,-187500.0224,-173288.515,-187500.0224,-184993.4977,-187500.0224,-187500.0224,0.34,-0.06,0.926,192,0,0,0,0,0,0,0,0,0,0
 2023-06-27 18:21:42.130,-187500.0224,-187500.0224,-187500.0224,-172922.9522,-187013.4919,-184314.8541,-187500.0224,-187500.0224,0.34,-0.06,0.926,192,0,0,0,0,0,0,0,0,0,0
 2023-06-27 18:21:42.130,-187500.0224,-187500.0224,-187500.0224,-172179.6673,-185810.6552,-182947.5979,-187500.0224,-187500.0224,0.34,-0.06,0.926,192,0,0,0,0,0,0,0,0,0,0
 2023-06-27 18:21:42.130,-187500.0224,-187500.0224,-187500.0224,-172116.3895,-185839.9359,-182832.8887,-187500.0224,-187500.0224,0.34,-0.06,0.926,192,0,0,0,0,0,0,0,0,0,0
 2023-06-27 18:21:42.130,-187500.0224,-187500.0224,-187500.0224,-172825.4986,-187079.5637,-184144.2208,-187500.0224,-187500.0224,0.34,-0.064,0.928,192,10,160,254,0,29,0,0,0,0,0
 2023-06-27 18:21:42.130,-187500.0224,-187500.0224,-187500.0224,-173294.4606,-187500.0224,-185001.7455,-187500.0224,-187500.0224,0.34,-0.064,0.928,192,0,0,0,0,0,0,0,0,0,0
 2023-06-27 18:21:42.130,-187500.0224,-187500.0224,-187500.0224,-172942.6218,-187042.728,-184348.8511,-187500.0224,-187500.0224,0.34,-0.064,0.928,192,0,0,0,0,0,0,0,0,0,0
 2023-06-27 18:21:42.131,-187500.0224,-187500.0224,-187500.0224,-172194.1289,-185827.8883,-182971.9613,-187500.0224,-187500.0224,0.34,-0.064,0.928,192,0,0,0,0,0,0,0,0,0,0
 2023-06-27 18:21:42.131,-187500.0224,-187500.0224,-187500.0224,-172119.3176,-185834.2362,-182831.7041,-187500.0224,-187500.0224,0.34,-0.064,0.928,192,0,0,0,0,0,0,0,0,0,0
 2023-06-27 18:21:42.131,-187500.0224,-187500.0224,-187500.0224,-172818.2343,-187060.5871,-184125.043,-187500.0224,-187500.0224,0.34,-0.064,0.928,192,0,0,0,0,0,0,0,0,0,0
 2023-06-27 18:21:42.131,-187500.0224,-187500.0224,-187500.0224,-173297.9251,-187500.0224,-185004.1372,-187500.0224,-187500.0224,0.34,-0.064,0.928,192,0,0,0,0,0,0,0,0,0,0
 2023-06-27 18:21:42.131,-187500.0224,-187500.0224,-187500.0224,-172962.5819,-187070.9583,-184380.68,-187500.0224,-187500.0224,0.34,-0.064,0.928,192,0,0,0,0,0,0,0,0,0,0
 2023-06-27 18:21:42.131,-187500.0224,-187500.0224,-187500.0224,-172210.3786,-185846.9991,-182996.9058,-187500.0224,-187500.0224,0.34,-0.064,0.928,192,0,0,0,0,0,0,0,0,0,0
 2023-06-27 18:21:42.131,-187500.0224,-187500.0224,-187500.0224,-172116.5907,-185824.3344,-182825.0656,-187500.0224,-187500.0224,0.34,-0.064,0.928,192,0,0,0,0,0,0,0,0,0,0
 2023-06-27 18:21:42.131,-187500.0224,-187500.0224,-187500.0224,-172806.2761,-187038.5259,-184102.0208,-187500.0224,-187500.0224,0.34,-0.07,0.924,192,10,160,253,208,28,224,0,0,0,0
 2023-06-27 18:21:42.131,-187500.0224,-187500.0224,-187500.0224,-173301.412,-187500.0224,-185007.9817,-187500.0224,-187500.0224,0.34,-0.07,0.924,192,0,0,0,0,0,0,0,0,0,0
 2023-06-27 18:21:42.131,-187500.0224,-187500.0224,-187500.0224,-172979.5692,-187096.8416,-184410.2737,-187500.0224,-187500.0224,0.34,-0.07,0.924,192,0,0,0,0,0,0,0,0,0,0
 2023-06-27 18:21:42.131,-187500.0224,-187500.0224,-187500.0224,-172224.4155,-185864.8581,-183021.1351,-187500.0224,-187500.0224,0.34,-0.07,0.924,192,0,0,0,0,0,0,0,0,0,0
 2023-06-27 18:21:42.131,-187500.0224,-187500.0224,-187500.0224,-172115.1602,-185816.8913,-182822.1152,-187500.0224,-187500.0224,0.34,-0.07,0.924,192,0,0,0,0,0,0,0,0,0,0
 2023-06-27 18:21:42.131,-187500.0224,-187500.0224,-187500.0224,-172798.453,-187021.695,-184086.1957,-187500.0224,-187500.0224,0.34,-0.07,0.924,192,0,0,0,0,0,0,0,0,0,0
 2023-06-27 18:21:42.131,-187500.0224,-187500.0224,-187500.0224,-173306.7987,-187500.0224,-185014.9331,-187500.0224,-187500.0224,0.34,-0.07,0.924,192,0,0,0,0,0,0,0,0,0,0
 2023-06-27 18:21:42.131,-187500.0224,-187500.0224,-187500.0224,-172998.0094,-187123.8872,-184442.192,-187500.0224,-187500.0224,0.34,-0.07,0.924,192,0,0,0,0,0,0,0,0,0,0
 2023-06-27 18:21:42.131,-187500.0224,-187500.0224,-187500.0224,-172239.6147,-185882.8513,-183046.5267,-187500.0224,-187500.0224,0.34,-0.07,0.924,192,0,0,0,0,0,0,0,0,0,0
 2023-06-27 18:21:42.131,-187500.0224,-187500.0224,-187500.0224,-172114.7802,-185808.3753,-182818.3824,-187500.0224,-187500.0224,0.34,-0.07,0.924,192,0,0,0,0,0,0,0,0,0,0
 2023-06-27 18:21:42.131,-187500.0224,-187500.0224,-187500.0224,-172788.3053,-187000.3268,-184064.738,-187500.0224,-187500.0224,0.344,-0.066,0.928,192,10,192,253,240,29,0,0,0,0,0
 2023-06-27 18:21:42.131,-187500.0224,-187500.0224,-187500.0224,-173306.5305,-187500.0224,-185014.1954,-187500.0224,-187500.0224,0.344,-0.066,0.928,192,0,0,0,0,0,0,0,0,0,0
 2023-06-27 18:21:42.131,-187500.0224,-187500.0224,-187500.0224,-173013.9685,-187148.1165,-184470.0869,-187500.0224,-187500.0224,0.344,-0.066,0.928,192,0,0,0,0,0,0,0,0,0,0
 2023-06-27 18:21:42.131,-187500.0224,-187500.0224,-187500.0224,-172253.3163,-185900.0621,-183069.9066,-187500.0224,-187500.0224,0.344,-0.066,0.928,192,0,0,0,0,0,0,0,0,0,0
 2023-06-27 18:21:42.131,-187500.0224,-187500.0224,-187500.0224,-172112.098,-185798.5405,-182812.4816,-187500.0224,-187500.0224,0.344,-0.066,0.928,192,0,0,0,0,0,0,0,0,0,0
 2023-06-27 18:21:42.131,-187500.0224,-187500.0224,-187500.0224,-172776.1683,-186977.2821,-184041.3805,-187500.0224,-187500.0224,0.344,-0.066,0.928,192,0,0,0,0,0,0,0,0,0,0
 2023-06-27 18:21:42.131,-187500.0224,-187500.0224,-187500.0224,-173309.101,-187500.0224,-185015.9165,-187500.0224,-187500.0224,0.344,-0.066,0.928,192,0,0,0,0,0,0,0,0,0,0
 2023-06-27 18:21:42.131,-187500.0224,-187500.0224,-187500.0224,-173032.811,-187175.4303,-184500.7535,-187500.0224,-187500.0224,0.344,-0.066,0.928,192,0,0,0,0,0,0,0,0,0,0
 2023-06-27 18:21:42.131,-187500.0224,-187500.0224,-187500.0224,-172268.9849,-185919.307,-183095.5217,-187500.0224,-187500.0224,0.344,-0.066,0.928,192,0,0,0,0,0,0,0,0,0,0
 2023-06-27 18:21:42.131,-187500.0224,-187500.0224,-187500.0224,-172113.1709,-185793.3326,-182811.4981,-187500.0224,-187500.0224,0.344,-0.066,0.928,192,0,0,0,0,0,0,0,0,0,0
 2023-06-27 18:21:42.131,-187500.0224,-187500.0224,-187500.0224,-172770.1781,-186961.8147,-184026.293,-187500.0224,-187500.0224,0.344,-0.066,0.928,192,0,0,0,0,0,0,0,0,0,0
 2023-06-27 18:21:42.131,-187500.0224,-187500.0224,-187500.0224,-173311.4032,-187500.0224,-185019.0458,-187500.0224,-187500.0224,0.342,-0.062,0.926,192,10,176,254,16,28,240,0,0,0,0
 2023-06-27 18:21:42.131,-187500.0224,-187500.0224,-187500.0224,-173046.9597,-187198.0503,-184527.7097,-187500.0224,-187500.0224,0.342,-0.062,0.926,192,0,0,0,0,0,0,0,0,0,0
 2023-06-27 18:21:42.131,-187500.0224,-187500.0224,-187500.0224,-172281.6136,-185935.5344,-183118.8122,-187500.0224,-187500.0224,0.342,-0.062,0.926,192,0,0,0,0,0,0,0,0,0,0
 2023-06-27 18:21:42.131,-187500.0224,-187500.0224,-187500.0224,-172109.8181,-185783.6542,-182807.0277,-187500.0224,-187500.0224,0.342,-0.062,0.926,192,0,0,0,0,0,0,0,0,0,0
 2023-06-27 18:21:42.131,-187500.0224,-187500.0224,-187500.0224,-172757.5717,-186939.15,-184004.8577,-187500.0224,-187500.0224,0.342,-0.062,0.926,192,0,0,0,0,0,0,0,0,0,0
 2023-06-27 18:21:42.131,-187500.0224,-187500.0224,-187500.0224,-173311.8279,-187500.0224,-185019.4481,-187500.0224,-187500.0224,0.342,-0.062,0.926,192,0,0,0,0,0,0,0,0,0,0
 2023-06-27 18:21:42.131,-187500.0224,-187500.0224,-187500.0224,-173062.4271,-187221.0949,-184555.2247,-187500.0224,-187500.0224,0.342,-0.062,0.926,192,0,0,0,0,0,0,0,0,0,0
 2023-06-27 18:21:42.131,-187500.0224,-187500.0224,-187500.0224,-172296.8799,-185954.4663,-183144.7402,-187500.0224,-187500.0224,0.342,-0.062,0.926,192,0,0,0,0,0,0,0,0,0,0
 2023-06-27 18:21:42.131,-187500.0224,-187500.0224,-187500.0224,-172114.6237,-185781.4638,-182809.3747,-187500.0224,-187500.0224,0.342,-0.062,0.926,192,0,0,0,0,0,0,0,0,0,0
 2023-06-27 18:21:42.131,-187500.0224,-187500.0224,-187500.0224,-172749.6368,-186919.0111,-183984.3612,-187500.0224,-187500.0224,0.342,-0.062,0.926,192,0,0,0,0,0,0,0,0,0,0
 2023-06-27 18:21:42.131,-187500.0224,-187500.0224,-187500.0224,-173316.2982,-187500.0224,-185022.1527,-187500.0224,-187500.0224,0.346,-0.064,0.924,192,10,208,254,0,28,224,0,0,0,0
 2023-06-27 18:21:42.131,-187500.0224,-187500.0224,-187500.0224,-173080.0626,-187246.643,-184583.6338,-187500.0224,-187500.0224,0.346,-0.064,0.924,192,0,0,0,0,0,0,0,0,0,0
 2023-06-27 18:21:42.131,-187500.0224,-187500.0224,-187500.0224,-172312.5484,-185974.1358,-183170.2436,-187500.0224,-187500.0224,0.346,-0.064,0.924,192,0,0,0,0,0,0,0,0,0,0
 2023-06-27 18:21:42.131,-187500.0224,-187500.0224,-187500.0224,-172116.166,-185777.0158,-182809.2182,-187500.0224,-187500.0224,0.346,-0.064,0.924,192,0,0,0,0,0,0,0,0,0,0
 2023-06-27 18:21:42.131,-187500.0224,-187500.0224,-187500.0224,-172741.7913,-186901.018,-183966.7256,-187500.0224,-187500.0224,0.346,-0.064,0.924,192,0,0,0,0,0,0,0,0,0,0
 2023-06-27 18:21:42.131,-187500.0224,-187500.0224,-187500.0224,-173318.8016,-187500.0224,-185023.762,-187500.0224,-187500.0224,0.346,-0.064,0.924,192,0,0,0,0,0,0,0,0,0,0
 2023-06-27 18:21:42.131,-187500.0224,-187500.0224,-187500.0224,-173100.6486,-187275.0744,-184615.5297,-187500.0224,-187500.0224,0.346,-0.064,0.924,192,0,0,0,0,0,0,0,0,0,0
 2023-06-27 18:21:42.131,-187500.0224,-187500.0224,-187500.0224,-172330.9439,-185996.5099,-183199.0326,-187500.0224,-187500.0224,0.346,-0.064,0.924,192,0,0,0,0,0,0,0,0,0,0
 2023-06-27 18:21:42.131,-187500.0224,-187500.0224,-187500.0224,-172116.1884,-185770.1761,-182806.6254,-187500.0224,-187500.0224,0.346,-0.064,0.924,192,0,0,0,0,0,0,0,0,0,0
 2023-06-27 18:21:42.131,-187500.0224,-187500.0224,-187500.0224,-172733.32,-186880.5661,-183946.0056,-187500.0224,-187500.0224,0.346,-0.064,0.924,192,0,0,0,0,0,0,0,0,0,0
 2023-06-27 18:21:42.131,-187500.0224,-187500.0224,-187500.0224,-173321.1709,-187500.0224,-185024.209,-187500.0224,-187500.0224,0.342,-0.072,0.92,192,10,176,253,192,28,192,0,0,0,0
 2023-06-27 18:21:42.131,-187500.0224,-187500.0224,-187500.0224,-173115.8925,-187298.2979,-184641.793,-187500.0224,-187500.0224,0.342,-0.072,0.92,192,0,0,0,0,0,0,0,0,0,0
 2023-06-27 18:21:42.131,-187500.0224,-187500.0224,-187500.0224,-172345.6961,-186015.7995,-183224.5583,-187500.0224,-187500.0224,0.342,-0.072,0.92,192,0,0,0,0,0,0,0,0,0,0
 2023-06-27 18:21:42.131,-187500.0224,-187500.0224,-187500.0224,-172116.5236,-185764.4317,-182805.3066,-187500.0224,-187500.0224,0.342,-0.072,0.92,192,0,0,0,0,0,0,0,0,0,0
 2023-06-27 18:21:42.131,-187500.0224,-187500.0224,-187500.0224,-172716.4892,-186852.0676,-183917.44,-187500.0224,-187500.0224,0.342,-0.072,0.92,192,0,0,0,0,0,0,0,0,0,0
 2023-06-27 18:21:42.131,-187500.0224,-187500.0224,-187500.0224,-173317.684,-187500.0224,-185018.8446,-187500.0224,-187500.0224,0.342,-0.072,0.92,192,0,0,0,0,0,0,0,0,0,0
 2023-06-27 18:21:42.131,-187500.0224,-187500.0224,-187500.0224,-173125.5931,-187315.017,-184661.2167,-187500.0224,-187500.0224,0.342,-0.072,0.92,192,0,0,0,0,0,0,0,0,0,0
 2023-06-27 18:21:42.131,-187500.0224,-187500.0224,-187500.0224,-172356.492,-186030.3952,-183244.7866,-187500.0224,-187500.0224,0.342,-0.072,0.92,192,0,0,0,0,0,0,0,0,0,0
 2023-06-27 18:21:42.131,-187500.0224,-187500.0224,-187500.0224,-172116.3001,-185758.1062,-182802.7362,-187500.0224,-187500.0224,0.342,-0.072,0.92,192,0,0,0,0,0,0,0,0,0,0
 2023-06-27 18:21:42.131,-187500.0224,-187500.0224,-187500.0224,-172707.5038,-186831.7946,-183896.4294,-187500.0224,-187500.0224,0.342,-0.072,0.92,192,0,0,0,0,0,0,0,0,0,0
 2023-06-27 18:21:42.131,-187500.0224,-187500.0224,-187500.0224,-173318.7122,-187500.0224,-185017.1012,-187500.0224,-187500.0224,0.346,-0.068,0.916,192,10,208,253,224,28,160,0,0,0,0
 2023-06-27 18:21:42.131,-187500.0224,-187500.0224,-187500.0224,-173141.3511,-187338.2404,-184686.5859,-187500.0224,-187500.0224,0.346,-0.068,0.916,192,0,0,0,0,0,0,0,0,0,0
 2023-06-27 18:21:42.131,-187500.0224,-187500.0224,-187500.0224,-172372.0488,-186050.7352,-183270.4241,-187500.0224,-187500.0224,0.346,-0.068,0.916,192,0,0,0,0,0,0,0,0,0,0
 2023-06-27 18:21:42.131,-187500.0224,-187500.0224,-187500.0224,-172114.3779,-185749.7019,-182797.8412,-187500.0224,-187500.0224,0.346,-0.068,0.916,192,0,0,0,0,0,0,0,0,0,0
 2023-06-27 18:21:42.131,-187500.0224,-187500.0224,-187500.0224,-172694.0704,-186805.7995,-183869.3391,-187500.0224,-187500.0224,0.346,-0.068,0.916,192,0,0,0,0,0,0,0,0,0,0
 2023-06-27 18:21:42.131,-187500.0224,-187500.0224,-187500.0224,-173316.857,-187500.0224,-185011.178,-187500.0224,-187500.0224,0.346,-0.068,0.916,192,0,0,0,0,0,0,0,0,0,0
 2023-06-27 18:21:42.131,-187500.0224,-187500.0224,-187500.0224,-173153.354,-187357.3512,-184707.0825,-187500.0224,-187500.0224,0.346,-0.068,0.916,192,0,0,0,0,0,0,0,0,0,0
 2023-06-27 18:21:42.132,-187500.0224,-187500.0224,-187500.0224,-172387.0021,-186070.6506,-183294.8993,-187500.0224,-187500.0224,0.346,-0.068,0.916,192,0,0,0,0,0,0,0,0,0,0
 2023-06-27 18:21:42.132,-187500.0224,-187500.0224,-187500.0224,-172116.0543,-185747.0421,-182798.5341,-187500.0224,-187500.0224,0.346,-0.068,0.916,192,0,0,0,0,0,0,0,0,0,0
 2023-06-27 18:21:42.132,-187500.0224,-187500.0224,-187500.0224,-172682.8051,-186784.8112,-183848.0379,-187500.0224,-187500.0224,0.346,-0.068,0.916,192,0,0,0,0,0,0,0,0,0,0
 2023-06-27 18:21:42.132,-187500.0224,-187500.0224,-187500.0224,-173311.7832,-187500.0224,-185003.9807,-187500.0224,-187500.0224,0.344,-0.07,0.922,192,10,192,253,208,28,208,0,0,0,0
 2023-06-27 18:21:42.132,-187500.0224,-187500.0224,-187500.0224,-173165.3122,-187376.8866,-184728.9648,-187500.0224,-187500.0224,0.344,-0.07,0.922,192,0,0,0,0,0,0,0,0,0,0
 2023-06-27 18:21:42.132,-187500.0224,-187500.0224,-187500.0224,-172402.693,-186091.326,-183321.2073,-187500.0224,-187500.0224,0.344,-0.07,0.922,192,0,0,0,0,0,0,0,0,0,0
 2023-06-27 18:21:42.132,-187500.0224,-187500.0224,-187500.0224,-172116.6354,-185743.0411,-182798.5564,-187500.0224,-187500.0224,0.344,-0.07,0.922,192,0,0,0,0,0,0,0,0,0,0
 2023-06-27 18:21:42.132,-187500.0224,-187500.0224,-187500.0224,-172676.7701,-186770.0814,-183833.7998,-187500.0224,-187500.0224,0.344,-0.07,0.922,192,0,0,0,0,0,0,0,0,0,0
 2023-06-27 18:21:42.132,-187500.0224,-187500.0224,-187500.0224,-173319.5839,-187500.0224,-185011.2897,-187500.0224,-187500.0224,0.344,-0.07,0.922,192,0,0,0,0,0,0,0,0,0,0
 2023-06-27 18:21:42.132,-187500.0224,-187500.0224,-187500.0224,-173185.764,-187404.7145,-184760.2126,-187500.0224,-187500.0224,0.344,-0.07,0.922,192,0,0,0,0,0,0,0,0,0,0
 2023-06-27 18:21:42.132,-187500.0224,-187500.0224,-187500.0224,-172419.3674,-186113.2754,-183349.7951,-187500.0224,-187500.0224,0.344,-0.07,0.922,192,0,0,0,0,0,0,0,0,0,0
 2023-06-27 18:21:42.132,-187500.0224,-187500.0224,-187500.0224,-172119.7646,-185740.493,-182800.881,-187500.0224,-187500.0224,0.344,-0.07,0.922,192,0,0,0,0,0,0,0,0,0,0
 2023-06-27 18:21:42.132,-187500.0224,-187500.0224,-187500.0224,-172664.9237,-186746.0086,-183809.8611,-187500.0224,-187500.0224,0.344,-0.07,0.922,192,0,0,0,0,0,0,0,0,0,0
 2023-06-27 18:21:42.132,-187500.0224,-187500.0224,-187500.0224,-173316.1865,-187500.0224,-185005.4112,-187500.0224,-187500.0224,0.342,-0.07,0.924,192,10,176,253,208,28,224,0,0,0,0
 2023-06-27 18:21:42.132,-187500.0224,-187500.0224,-187500.0224,-173198.0575,-187424.0935,-184782.3408,-187500.0224,-187500.0224,0.342,-0.07,0.924,192,0,0,0,0,0,0,0,0,0,0
 2023-06-27 18:21:42.132,-187500.0224,-187500.0224,-187500.0224,-172435.7065,-186133.9955,-183376.282,-187500.0224,-187500.0224,0.342,-0.07,0.924,192,0,0,0,0,0,0,0,0,0,0
 2023-06-27 18:21:42.132,-187500.0224,-187500.0224,-187500.0224,-172119.027,-185733.2064,-182797.3271,-187500.0224,-187500.0224,0.342,-0.07,0.924,192,0,0,0,0,0,0,0,0,0,0
 2023-06-27 18:21:42.132,-187500.0224,-187500.0224,-187500.0224,-172653.5019,-186721.9358,-183784.8942,-187500.0224,-187500.0224,0.342,-0.07,0.924,192,0,0,0,0,0,0,0,0,0,0
 2023-06-27 18:21:42.132,-187500.0224,-187500.0224,-187500.0224,-173317.5052,-187500.0224,-185003.0866,-187500.0224,-187500.0224,0.342,-0.07,0.924,192,0,0,0,0,0,0,0,0,0,0
 2023-06-27 18:21:42.132,-187500.0224,-187500.0224,-187500.0224,-173213.7484,-187447.2722,-184807.2853,-187500.0224,-187500.0224,0.342,-0.07,0.924,192,0,0,0,0,0,0,0,0,0,0
 2023-06-27 18:21:42.132,-187500.0224,-187500.0224,-187500.0224,-172452.2468,-186156.5037,-183404.311,-187500.0224,-187500.0224,0.342,-0.07,0.924,192,0,0,0,0,0,0,0,0,0,0
 2023-06-27 18:21:42.132,-187500.0224,-187500.0224,-187500.0224,-172123.0951,-185732.8487,-182801.3727,-187500.0224,-187500.0224,0.342,-0.07,0.924,192,0,0,0,0,0,0,0,0,0,0
 2023-06-27 18:21:42.132,-187500.0224,-187500.0224,-187500.0224,-172642.2143,-186699.8075,-183763.0565,-187500.0224,-187500.0224,0.342,-0.07,0.924,192,0,0,0,0,0,0,0,0,0,0
 2023-06-27 18:21:42.132,-187500.0224,-187500.0224,-187500.0224,-173316.7453,-187500.0224,-184999.2868,-187500.0224,-187500.0224,0.344,-0.072,0.926,192,10,192,253,192,28,240,0,0,0,0
 2023-06-27 18:21:42.132,-187500.0224,-187500.0224,-187500.0224,-173227.2042,-187467.2547,-184829.3689,-187500.0224,-187500.0224,0.344,-0.072,0.926,192,0,0,0,0,0,0,0,0,0,0
 2023-06-27 18:21:42.132,-187500.0224,-187500.0224,-187500.0224,-172469.0106,-186178.5425,-183431.9155,-187500.0224,-187500.0224,0.344,-0.072,0.926,192,0,0,0,0,0,0,0,0,0,0
 2023-06-27 18:21:42.132,-187500.0224,-187500.0224,-187500.0224,-172127.3866,-185732.4017,-182805.1278,-187500.0224,-187500.0224,0.344,-0.072,0.926,192,0,0,0,0,0,0,0,0,0,0
 2023-06-27 18:21:42.132,-187500.0224,-187500.0224,-187500.0224,-172637.5204,-186684.0272,-183747.4774,-187500.0224,-187500.0224,0.344,-0.072,0.926,192,0,0,0,0,0,0,0,0,0,0
 2023-06-27 18:21:42.132,-187500.0224,-187500.0224,-187500.0224,-173318.064,-187500.0224,-184997.5881,-187500.0224,-187500.0224,0.344,-0.072,0.926,192,0,0,0,0,0,0,0,0,0,0
 2023-06-27 18:21:42.132,-187500.0224,-187500.0224,-187500.0224,-173242.4928,-187489.5617,-184853.9781,-187500.0224,-187500.0224,0.344,-0.072,0.926,192,0,0,0,0,0,0,0,0,0,0
 2023-06-27 18:21:42.132,-187500.0224,-187500.0224,-187500.0224,-172486.6238,-186202.0342,-183461.1739,-187500.0224,-187500.0224,0.344,-0.072,0.926,192,0,0,0,0,0,0,0,0,0,0
 2023-06-27 18:21:42.132,-187500.0224,-187500.0224,-187500.0224,-172131.3875,-185731.5076,-182808.6371,-187500.0224,-187500.0224,0.344,-0.072,0.926,192,0,0,0,0,0,0,0,0,0,0
 2023-06-27 18:21:42.132,-187500.0224,-187500.0224,-187500.0224,-172627.8198,-186662.4131,-183725.7515,-187500.0224,-187500.0224,0.344,-0.072,0.926,192,0,0,0,0,0,0,0,0,0,0
 2023-06-27 18:21:42.132,-187500.0224,-187500.0224,-187500.0224,-173316.857,-187500.0224,-184992.3801,-187500.0224,-187500.0224,0.342,-0.07,0.926,192,10,176,253,208,28,240,0,0,0,0
 2023-06-27 18:21:42.132,-187500.0224,-187500.0224,-187500.0224,-173255.725,-187500.0224,-184875.7711,-187500.0224,-187500.0224,0.342,-0.07,0.926,192,0,0,0,0,0,0,0,0,0,0
 2023-06-27 18:21:42.610,-187500.0224,-187500.0224,-187500.0224,-172506.8969,-186228.2528,-183492.9804,-187500.0224,-187500.0224,0.342,-0.07,0.926,192,0,0,0,0,0,0,0,0,0,0
 2023-06-27 18:21:42.610,-187500.0224,-187500.0224,-187500.0224,-172137.8919,-185734.0781,-182815.6108,-187500.0224,-187500.0224,0.342,-0.07,0.926,192,0,0,0,0,0,0,0,0,0,0
 2023-06-27 18:21:42.610,-187500.0224,-187500.0224,-187500.0224,-172619.5496,-186645.0234,-183709.0771,-187500.0224,-187500.0224,0.342,-0.07,0.926,192,0,0,0,0,0,0,0,0,0,0
 2023-06-27 18:21:42.610,-187500.0224,-187500.0224,-187500.0224,-173317.0358,-187500.0224,-184991.1061,-187500.0224,-187500.0224,0.342,-0.07,0.926,192,0,0,0,0,0,0,0,0,0,0
 2023-06-27 18:21:42.610,-187500.0224,-187500.0224,-187500.0224,-173271.5277,-187500.0224,-184901.9003,-187500.0224,-187500.0224,0.342,-0.07,0.926,192,0,0,0,0,0,0,0,0,0,0
 2023-06-27 18:21:42.611,-187500.0224,-187500.0224,-187500.0224,-172524.4877,-186252.1915,-183523.7364,-187500.0224,-187500.0224,0.342,-0.07,0.926,192,0,0,0,0,0,0,0,0,0,0
 2023-06-27 18:21:42.611,-187500.0224,-187500.0224,-187500.0224,-172138.2048,-185730.2336,-182817.3766,-187500.0224,-187500.0224,0.342,-0.07,0.926,192,0,0,0,0,0,0,0,0,0,0
 2023-06-27 18:21:42.611,-187500.0224,-187500.0224,-187500.0224,-172611.2795,-186625.2421,-183690.7487,-187500.0224,-187500.0224,0.342,-0.07,0.926,192,0,0,0,0,0,0,0,0,0,0
 2023-06-27 18:21:42.611,-187500.0224,-187500.0224,-187500.0224,-173319.1592,-187500.0224,-184989.8991,-187500.0224,-187500.0224,0.342,-0.062,0.924,192,10,176,254,16,28,224,0,0,0,0
 2023-06-27 18:21:42.611,-187500.0224,-187500.0224,-187500.0224,-173288.9397,-187500.0224,-184928.4318,-187500.0224,-187500.0224,0.342,-0.062,0.924,192,0,0,0,0,0,0,0,0,0,0
 2023-06-27 18:21:42.611,-187500.0224,-187500.0224,-187500.0224,-172545.4536,-186279.9077,-183558.1805,-187500.0224,-187500.0224,0.342,-0.062,0.924,192,0,0,0,0,0,0,0,0,0,0
 2023-06-27 18:21:42.611,-187500.0224,-187500.0224,-187500.0224,-172142.7869,-185730.8147,-182823.6127,-187500.0224,-187500.0224,0.342,-0.062,0.924,192,0,0,0,0,0,0,0,0,0,0
 2023-06-27 18:21:42.611,-187500.0224,-187500.0224,-187500.0224,-172600.9083,-186604.1421,-183671.1909,-187500.0224,-187500.0224,0.342,-0.062,0.924,192,0,0,0,0,0,0,0,0,0,0
 2023-06-27 18:21:42.611,-187500.0224,-187500.0224,-187500.0224,-173314.9348,-187500.0224,-184983.4618,-187500.0224,-187500.0224,0.342,-0.062,0.924,192,0,0,0,0,0,0,0,0,0,0
 2023-06-27 18:21:42.611,-187500.0224,-187500.0224,-187500.0224,-173300.1156,-187500.0224,-184949.4871,-187500.0224,-187500.0224,0.342,-0.062,0.924,192,0,0,0,0,0,0,0,0,0,0
 2023-06-27 18:21:42.611,-187500.0224,-187500.0224,-187500.0224,-172563.9385,-186304.6064,-183589.8752,-187500.0224,-187500.0224,0.342,-0.062,0.924,192,0,0,0,0,0,0,0,0,0,0
 2023-06-27 18:21:42.611,-187500.0224,-187500.0224,-187500.0224,-172149.0231,-185732.6476,-182831.5029,-187500.0224,-187500.0224,0.342,-0.062,0.924,192,0,0,0,0,0,0,0,0,0,0
 2023-06-27 18:21:42.611,-187500.0224,-187500.0224,-187500.0224,-172591.6323,-186581.9915,-183650.4708,-187500.0224,-187500.0224,0.342,-0.062,0.924,192,0,0,0,0,0,0,0,0,0,0
 2023-06-27 18:21:42.611,-187500.0224,-187500.0224,-187500.0224,-173312.1408,-187500.0224,-184975.9963,-187500.0224,-187500.0224,0.346,-0.062,0.92,192,10,208,254,16,28,192,0,0,0,0
 2023-06-27 18:21:42.611,-187500.0224,-187500.0224,-187500.0224,-173312.9455,-187500.0224,-184970.4978,-187500.0224,-187500.0224,0.346,-0.062,0.92,192,0,0,0,0,0,0,0,0,0,0
 2023-06-27 18:21:42.611,-187500.0224,-187500.0224,-187500.0224,-172583.3845,-186330.445,-183621.95,-187500.0224,-187500.0224,0.346,-0.062,0.92,192,0,0,0,0,0,0,0,0,0,0
 2023-06-27 18:21:42.611,-187500.0224,-187500.0224,-187500.0224,-172156.9803,-185737.9002,-182842.2317,-187500.0224,-187500.0224,0.346,-0.062,0.92,192,0,0,0,0,0,0,0,0,0,0
 2023-06-27 18:21:42.611,-187500.0224,-187500.0224,-187500.0224,-172589.0619,-186571.7544,-183642.7595,-187500.0224,-187500.0224,0.346,-0.062,0.92,192,0,0,0,0,0,0,0,0,0,0
 2023-06-27 18:21:42.611,-187500.0224,-187500.0224,-187500.0224,-173316.5441,-187500.0224,-184979.8855,-187500.0224,-187500.0224,0.346,-0.062,0.92,192,0,0,0,0,0,0,0,0,0,0
 2023-06-27 18:21:42.611,-187500.0224,-187500.0224,-187500.0224,-173331.6092,-187500.0224,-184999.935,-187500.0224,-187500.0224,0.346,-0.062,0.92,192,0,0,0,0,0,0,0,0,0,0
 2023-06-27 18:21:42.611,-187500.0224,-187500.0224,-187500.0224,-172605.3339,-186359.5022,-183659.2774,-187500.0224,-187500.0224,0.346,-0.062,0.92,192,0,0,0,0,0,0,0,0,0,0
 2023-06-27 18:21:42.611,-187500.0224,-187500.0224,-187500.0224,-172164.0434,-185740.3142,-182851.9547,-187500.0224,-187500.0224,0.346,-0.062,0.92,192,0,0,0,0,0,0,0,0,0,0
 2023-06-27 18:21:42.611,-187500.0224,-187500.0224,-187500.0224,-172574.3321,-186541.6466,-183614.5516,-187500.0224,-187500.0224,0.346,-0.062,0.92,192,0,0,0,0,0,0,0,0,0,0
 2023-06-27 18:21:42.611,-187500.0224,-187500.0224,-187500.0224,-173309.3692,-187500.0224,-184966.4074,-187500.0224,-187500.0224,0.344,-0.068,0.914,192,10,192,253,224,28,144,0,0,0,0
 2023-06-27 18:21:42.611,-187500.0224,-187500.0224,-187500.0224,-173339.7229,-187500.0224,-185016.1847,-187500.0224,-187500.0224,0.344,-0.068,0.914,192,0,0,0,0,0,0,0,0,0,0
 2023-06-27 18:21:42.611,-187500.0224,-187500.0224,-187500.0224,-172620.3767,-186381.7646,-183688.29,-187500.0224,-187500.0224,0.344,-0.068,0.914,192,0,0,0,0,0,0,0,0,0,0
 2023-06-27 18:21:42.611,-187500.0224,-187500.0224,-187500.0224,-172167.7985,-185740.2472,-182858.0791,-187500.0224,-187500.0224,0.344,-0.068,0.914,192,0,0,0,0,0,0,0,0,0,0
 2023-06-27 18:21:42.611,-187500.0224,-187500.0224,-187500.0224,-172570.0405,-186525.7769,-183600.7605,-187500.0224,-187500.0224,0.344,-0.068,0.914,192,0,0,0,0,0,0,0,0,0,0
 2023-06-27 18:21:42.611,-187500.0224,-187500.0224,-187500.0224,-173311.8502,-187500.0224,-184964.3734,-187500.0224,-187500.0224,0.344,-0.068,0.914,192,0,0,0,0,0,0,0,0,0,0
 2023-06-27 18:21:42.611,-187500.0224,-187500.0224,-187500.0224,-173356.2408,-187500.0224,-185040.1682,-187500.0224,-187500.0224,0.344,-0.068,0.914,192,0,0,0,0,0,0,0,0,0,0
 2023-06-27 18:21:42.611,-187500.0224,-187500.0224,-187500.0224,-172644.8965,-186413.9287,-183727.0479,-187500.0224,-187500.0224,0.344,-0.068,0.914,192,0,0,0,0,0,0,0,0,0,0
 2023-06-27 18:21:42.611,-187500.0224,-187500.0224,-187500.0224,-172181.5449,-185751.8701,-182875.9605,-187500.0224,-187500.0224,0.344,-0.068,0.914,192,0,0,0,0,0,0,0,0,0,0
 2023-06-27 18:21:42.611,-187500.0224,-187500.0224,-187500.0224,-172568.9676,-186515.8974,-183593.675,-187500.0224,-187500.0224,0.344,-0.068,0.914,192,0,0,0,0,0,0,0,0,0,0
 2023-06-27 18:21:42.611,-187500.0224,-187500.0224,-187500.0224,-173313.996,-187500.0224,-184964.3064,-187500.0224,-187500.0224,0.344,-0.066,0.922,192,10,192,253,240,28,208,0,0,0,0
 2023-06-27 18:21:42.611,-187500.0224,-187500.0224,-187500.0224,-173369.2719,-187500.0224,-185062.3635,-187500.0224,-187500.0224,0.344,-0.066,0.922,192,0,0,0,0,0,0,0,0,0,0
 2023-06-27 18:21:42.611,-187500.0224,-187500.0224,-187500.0224,-172666.2648,-186442.0472,-183762.6542,-187500.0224,-187500.0224,0.344,-0.066,0.922,192,0,0,0,0,0,0,0,0,0,0
 2023-06-27 18:21:42.611,-187500.0224,-187500.0224,-187500.0224,-172187.6469,-185753.9711,-182884.633,-187500.0224,-187500.0224,0.344,-0.066,0.922,192,0,0,0,0,0,0,0,0,0,0
 2023-06-27 18:21:42.611,-187500.0224,-187500.0224,-187500.0224,-172559.2893,-186492.2045,-183571.9938,-187500.0224,-187500.0224,0.344,-0.066,0.922,192,0,0,0,0,0,0,0,0,0,0
 2023-06-27 18:21:42.611,-187500.0224,-187500.0224,-187500.0224,-173306.5976,-187500.0224,-184949.4648,-187500.0224,-187500.0224,0.344,-0.066,0.922,192,0,0,0,0,0,0,0,0,0,0
 2023-06-27 18:21:42.611,-187500.0224,-187500.0224,-187500.0224,-173378.7266,-187500.0224,-185077.0709,-187500.0224,-187500.0224,0.344,-0.066,0.922,192,0,0,0,0,0,0,0,0,0,0
 2023-06-27 18:21:42.611,-187500.0224,-187500.0224,-187500.0224,-172681.5087,-186463.6614,-183789.4987,-187500.0224,-187500.0224,0.344,-0.066,0.922,192,0,0,0,0,0,0,0,0,0,0
 2023-06-27 18:21:42.611,-187500.0224,-187500.0224,-187500.0224,-172190.8208,-185754.0605,-182889.5504,-187500.0224,-187500.0224,0.344,-0.066,0.922,192,0,0,0,0,0,0,0,0,0,0
 2023-06-27 18:21:42.611,-187500.0224,-187500.0224,-187500.0224,-172549.0522,-186471.2386,-183551.8773,-187500.0224,-187500.0224,0.344,-0.066,0.922,192,0,0,0,0,0,0,0,0,0,0
 2023-06-27 18:21:42.611,-187500.0224,-187500.0224,-187500.0224,-173301.7249,-187500.0224,-184939.0042,-187500.0224,-187500.0224,0.346,-0.062,0.922,192,10,208,254,16,28,208,0,0,0,0
 2023-06-27 18:21:42.611,-187500.0224,-187500.0224,-187500.0224,-173389.8802,-187500.0224,-185094.997,-187500.0224,-187500.0224,0.346,-0.062,0.922,192,0,0,0,0,0,0,0,0,0,0
 2023-06-27 18:21:42.611,-187500.0224,-187500.0224,-187500.0224,-172699.7924,-186489.6341,-183821.5064,-187500.0224,-187500.0224,0.346,-0.062,0.922,192,0,0,0,0,0,0,0,0,0,0
 2023-06-27 18:21:42.611,-187500.0224,-187500.0224,-187500.0224,-172190.5973,-185749.8584,-182890.6903,-187500.0224,-187500.0224,0.346,-0.062,0.922,192,0,0,0,0,0,0,0,0,0,0
 2023-06-27 18:21:42.611,-187500.0224,-187500.0224,-187500.0224,-172532.0202,-186440.192,-183521.1883,-187500.0224,-187500.0224,0.346,-0.062,0.922,192,0,0,0,0,0,0,0,0,0,0
 2023-06-27 18:21:42.611,-187500.0224,-187500.0224,-187500.0224,-173294.617,-187500.0224,-184923.5144,-187500.0224,-187500.0224,0.346,-0.062,0.922,192,0,0,0,0,0,0,0,0,0,0
 2023-06-27 18:21:42.611,-187500.0224,-187500.0224,-187500.0224,-173401.5478,-187500.0224,-185112.856,-187500.0224,-187500.0224,0.346,-0.062,0.922,192,0,0,0,0,0,0,0,0,0,0
 2023-06-27 18:21:42.611,-187500.0224,-187500.0224,-187500.0224,-172722.6806,-186520.8148,-183857.6491,-187500.0224,-187500.0224,0.346,-0.062,0.922,192,0,0,0,0,0,0,0,0,0,0
 2023-06-27 18:21:42.611,-187500.0224,-187500.0224,-187500.0224,-172200.5438,-185757.1674,-182902.8497,-187500.0224,-187500.0224,0.346,-0.062,0.922,192,0,0,0,0,0,0,0,0,0,0
 2023-06-27 18:21:42.611,-187500.0224,-187500.0224,-187500.0224,-172527.1699,-186425.7975,-183508.0231,-187500.0224,-187500.0224,0.346,-0.062,0.922,192,0,0,0,0,0,0,0,0,0,0
 2023-06-27 18:21:42.611,-187500.0224,-187500.0224,-187500.0224,-173291.8901,-187500.0224,-184916.1383,-187500.0224,-187500.0224,0.35,-0.064,0.926,192,10,240,254,0,28,240,0,0,0,0
 2023-06-27 18:21:42.611,-187500.0224,-187500.0224,-187500.0224,-173413.1483,-187500.0224,-185130.0892,-187500.0224,-187500.0224,0.35,-0.064,0.926,192,0,0,0,0,0,0,0,0,0,0
 2023-06-27 18:21:42.611,-187500.0224,-187500.0224,-187500.0224,-172739.9138,-186545.1782,-183887.5111,-187500.0224,-187500.0224,0.35,-0.064,0.926,192,0,0,0,0,0,0,0,0,0,0
 2023-06-27 18:21:42.611,-187500.0224,-187500.0224,-187500.0224,-172204.1201,-185758.218,-182908.8399,-187500.0224,-187500.0224,0.35,-0.064,0.926,192,0,0,0,0,0,0,0,0,0,0
 2023-06-27 18:21:42.612,-187500.0224,-187500.0224,-187500.0224,-172518.2515,-186405.9045,-183489.3594,-187500.0224,-187500.0224,0.35,-0.064,0.926,192,0,0,0,0,0,0,0,0,0,0
 2023-06-27 18:21:42.612,-187500.0224,-187500.0224,-187500.0224,-173285.6987,-187500.0224,-184903.219,-187500.0224,-187500.0224,0.35,-0.064,0.926,192,0,0,0,0,0,0,0,0,0,0
 2023-06-27 18:21:42.612,-187500.0224,-187500.0224,-187500.0224,-173418.7363,-187500.0224,-185141.6674,-187500.0224,-187500.0224,0.35,-0.064,0.926,192,0,0,0,0,0,0,0,0,0,0
 2023-06-27 18:21:42.612,-187500.0224,-187500.0224,-187500.0224,-172756.2082,-186569.4969,-183917.4624,-187500.0224,-187500.0224,0.35,-0.064,0.926,192,0,0,0,0,0,0,0,0,0,0
 2023-06-27 18:21:42.612,-187500.0224,-187500.0224,-187500.0224,-172211.9656,-185763.94,-182920.1723,-187500.0224,-187500.0224,0.35,-0.064,0.926,192,0,0,0,0,0,0,0,0,0,0
 2023-06-27 18:21:42.612,-187500.0224,-187500.0224,-187500.0224,-172512.2613,-186390.2806,-183475.5908,-187500.0224,-187500.0224,0.35,-0.064,0.926,192,0,0,0,0,0,0,0,0,0,0
 2023-06-27 18:21:42.612,-187500.0224,-187500.0224,-187500.0224,-173283.2176,-187500.0224,-184896.3794,-187500.0224,-187500.0224,0.344,-0.07,0.918,192,10,192,253,208,28,176,0,0,0,0
 2023-06-27 18:21:42.612,-187500.0224,-187500.0224,-187500.0224,-173431.6332,-187500.0224,-185161.0911,-187500.0224,-187500.0224,0.344,-0.07,0.918,192,0,0,0,0,0,0,0,0,0,0
 2023-06-27 18:21:42.612,-187500.0224,-187500.0224,-187500.0224,-172778.2247,-186598.8894,-183952.8676,-187500.0224,-187500.0224,0.344,-0.07,0.918,192,0,0,0,0,0,0,0,0,0,0
 2023-06-27 18:21:42.612,-187500.0224,-187500.0224,-187500.0224,-172221.1298,-185770.7573,-182933.0469,-187500.0224,-187500.0224,0.344,-0.07,0.918,192,0,0,0,0,0,0,0,0,0,0
 2023-06-27 18:21:42.612,-187500.0224,-187500.0224,-187500.0224,-172505.2205,-186371.3263,-183458.514,-187500.0224,-187500.0224,0.344,-0.07,0.918,192,0,0,0,0,0,0,0,0,0,0
 2023-06-27 18:21:42.612,-187500.0224,-187500.0224,-187500.0224,-173278.6355,-187500.0224,-184885.0918,-187500.0224,-187500.0224,0.344,-0.07,0.918,192,0,0,0,0,0,0,0,0,0,0
 2023-06-27 18:21:42.612,-187500.0224,-187500.0224,-187500.0224,-173439.4563,-187500.0224,-185174.7927,-187500.0224,-187500.0224,0.344,-0.07,0.918,192,0,0,0,0,0,0,0,0,0,0
 2023-06-27 18:21:42.612,-187500.0224,-187500.0224,-187500.0224,-172795.145,-186624.1692,-183983.8247,-187500.0224,-187500.0224,0.344,-0.07,0.918,192,0,0,0,0,0,0,0,0,0,0
 2023-06-27 18:21:42.612,-187500.0224,-187500.0224,-187500.0224,-172225.1308,-185772.5454,-182940.6241,-187500.0224,-187500.0224,0.344,-0.07,0.918,192,0,0,0,0,0,0,0,0,0,0
 2023-06-27 18:21:42.612,-187500.0224,-187500.0224,-187500.0224,-172493.2846,-186347.8123,-183436.9446,-187500.0224,-187500.0224,0.344,-0.07,0.918,192,0,0,0,0,0,0,0,0,0,0
 2023-06-27 18:21:42.612,-187500.0224,-187500.0224,-187500.0224,-173273.4499,-187500.0224,-184872.4183,-187500.0224,-187500.0224,0.344,-0.072,0.918,192,10,192,253,192,28,176,0,0,0,0
 2023-06-27 18:21:42.612,-187500.0224,-187500.0224,-187500.0224,-173449.9393,-187500.0224,-185189.5002,-187500.0224,-187500.0224,0.344,-0.072,0.918,192,0,0,0,0,0,0,0,0,0,0
 2023-06-27 18:21:42.612,-187500.0224,-187500.0224,-187500.0224,-172815.0827,-186651.6842,-184016.4583,-187500.0224,-187500.0224,0.344,-0.072,0.918,192,0,0,0,0,0,0,0,0,0,0
 2023-06-27 18:21:42.612,-187500.0224,-187500.0224,-187500.0224,-172233.4233,-185778.6251,-182951.6882,-187500.0224,-187500.0224,0.344,-0.072,0.918,192,0,0,0,0,0,0,0,0,0,0
 2023-06-27 18:21:42.612,-187500.0224,-187500.0224,-187500.0224,-172486.825,-186330.8697,-183421.2984,-187500.0224,-187500.0224,0.344,-0.072,0.918,192,0,0,0,0,0,0,0,0,0,0
 2023-06-27 18:21:42.612,-187500.0224,-187500.0224,-187500.0224,-173268.7561,-187500.0224,-184861.6001,-187500.0224,-187500.0224,0.344,-0.072,0.918,192,0,0,0,0,0,0,0,0,0,0
 2023-06-27 18:21:42.612,-187500.0224,-187500.0224,-187500.0224,-173459.8635,-187500.0224,-185205.0346,-187500.0224,-187500.0224,0.344,-0.072,0.918,192,0,0,0,0,0,0,0,0,0,0
 2023-06-27 18:21:42.612,-187500.0224,-187500.0224,-187500.0224,-172833.9699,-186678.7746,-184049.0695,-187500.0224,-187500.0224,0.344,-0.072,0.918,192,0,0,0,0,0,0,0,0,0,0
 2023-06-27 18:21:42.612,-187500.0224,-187500.0224,-187500.0224,-172239.2124,-185782.6484,-182961.7465,-187500.0224,-187500.0224,0.344,-0.072,0.918,192,0,0,0,0,0,0,0,0,0,0
 2023-06-27 18:21:42.612,-187500.0224,-187500.0224,-187500.0224,-172480.2089,-186315.4693,-183408.6249,-187500.0224,-187500.0224,0.344,-0.072,0.918,192,0,0,0,0,0,0,0,0,0,0
 2023-06-27 18:21:42.612,-187500.0224,-187500.0224,-187500.0224,-173263.6152,-187500.0224,-184852.3241,-187500.0224,-187500.0224,0.344,-0.074,0.92,192,10,192,253,176,28,192,0,0,0,0
 2023-06-27 18:21:42.612,-187500.0224,-187500.0224,-187500.0224,-173470.1229,-187500.0224,-185222.2902,-187500.0224,-187500.0224,0.344,-0.074,0.92,192,0,0,0,0,0,0,0,0,0,0
 2023-06-27 18:21:42.612,-187500.0224,-187500.0224,-187500.0224,-172854.5112,-186707.6083,-184084.8323,-187500.0224,-187500.0224,0.344,-0.074,0.92,192,0,0,0,0,0,0,0,0,0,0
 2023-06-27 18:21:42.612,-187500.0224,-187500.0224,-187500.0224,-172247.4825,-185789.5551,-182975.6493,-187500.0224,-187500.0224,0.344,-0.074,0.92,192,0,0,0,0,0,0,0,0,0,0
 2023-06-27 18:21:42.612,-187500.0224,-187500.0224,-187500.0224,-172476.5432,-186303.9358,-183401.003,-187500.0224,-187500.0224,0.344,-0.074,0.92,192,0,0,0,0,0,0,0,0,0,0
 2023-06-27 18:21:42.612,-187500.0224,-187500.0224,-187500.0224,-173264.3304,-187500.0224,-184851.363,-187500.0224,-187500.0224,0.344,-0.074,0.92,192,0,0,0,0,0,0,0,0,0,0
 2023-06-27 18:21:42.612,-187500.0224,-187500.0224,-187500.0224,-173480.5835,-187500.0224,-185240.2163,-187500.0224,-187500.0224,0.344,-0.074,0.92,192,0,0,0,0,0,0,0,0,0,0
 2023-06-27 18:21:42.612,-187500.0224,-187500.0224,-187500.0224,-172873.3984,-186733.0669,-184117.734,-187500.0224,-187500.0224,0.344,-0.074,0.92,192,0,0,0,0,0,0,0,0,0,0
 2023-06-27 18:21:42.612,-187500.0224,-187500.0224,-187500.0224,-172255.708,-185794.8748,-182988.211,-187500.0224,-187500.0224,0.344,-0.074,0.92,192,0,0,0,0,0,0,0,0,0,0
 2023-06-27 18:21:42.612,-187500.0224,-187500.0224,-187500.0224,-172465.8591,-186277.6949,-183376.9972,-187500.0224,-187500.0224,0.344,-0.074,0.92,192,0,0,0,0,0,0,0,0,0,0
 2023-06-27 18:21:42.612,-187500.0224,-187500.0224,-187500.0224,-173253.3781,-187500.0224,-184827.0219,-187500.0224,-187500.0224,0.342,-0.07,0.912,192,10,176,253,208,28,128,0,0,0,0
 2023-06-27 18:21:42.612,-187500.0224,-187500.0224,-187500.0224,-173484.0481,-187500.0224,-185245.4689,-187500.0224,-187500.0224,0.342,-0.07,0.912,192,0,0,0,0,0,0,0,0,0,0
 2023-06-27 18:21:42.612,-187500.0224,-187500.0224,-187500.0224,-172889.9834,-186758.2574,-184146.6795,-187500.0224,-187500.0224,0.342,-0.07,0.912,192,0,0,0,0,0,0,0,0,0,0
 2023-06-27 18:21:42.612,-187500.0224,-187500.0224,-187500.0224,-172267.5544,-185805.626,-183003.4996,-187500.0224,-187500.0224,0.342,-0.07,0.912,192,0,0,0,0,0,0,0,0,0,0
 2023-06-27 18:21:42.612,-187500.0224,-187500.0224,-187500.0224,-172462.8639,-186263.7474,-183364.1673,-187500.0224,-187500.0224,0.342,-0.07,0.912,192,0,0,0,0,0,0,0,0,0,0
 2023-06-27 18:21:42.612,-187500.0224,-187500.0224,-187500.0224,-173249.8018,-187500.0224,-184814.4826,-187500.0224,-187500.0224,0.342,-0.07,0.912,192,0,0,0,0,0,0,0,0,0,0
 2023-06-27 18:21:42.612,-187500.0224,-187500.0224,-187500.0224,-173497.1685,-187500.0224,-185261.741,-187500.0224,-187500.0224,0.342,-0.07,0.912,192,0,0,0,0,0,0,0,0,0,0
 2023-06-27 18:21:42.612,-187500.0224,-187500.0224,-187500.0224,-172913.1845,-186789.9521,-184182.6658,-187500.0224,-187500.0224,0.342,-0.07,0.912,192,0,0,0,0,0,0,0,0,0,0
 2023-06-27 18:21:42.612,-187500.0224,-187500.0224,-187500.0224,-172274.2152,-185811.7504,-183014.6531,-187500.0224,-187500.0224,0.342,-0.07,0.912,192,0,0,0,0,0,0,0,0,0,0
 2023-06-27 18:21:42.612,-187500.0224,-187500.0224,-187500.0224,-172454.1914,-186247.2294,-183349.7728,-187500.0224,-187500.0224,0.342,-0.07,0.912,192,0,0,0,0,0,0,0,0,0,0
 2023-06-27 18:21:42.612,-187500.0224,-187500.0224,-187500.0224,-173241.6434,-187500.0224,-184801.4962,-187500.0224,-187500.0224,0.346,-0.068,0.916,192,10,208,253,224,28,160,0,0,0,0
 2023-06-27 18:21:42.612,-187500.0224,-187500.0224,-187500.0224,-173500.3872,-187500.0224,-185270.257,-187500.0224,-187500.0224,0.346,-0.068,0.916,192,0,0,0,0,0,0,0,0,0,0
 2023-06-27 18:21:42.612,-187500.0224,-187500.0224,-187500.0224,-172928.4955,-186813.712,-184212.416,-187500.0224,-187500.0224,0.346,-0.068,0.916,192,0,0,0,0,0,0,0,0,0,0
 2023-06-27 18:21:42.612,-187500.0224,-187500.0224,-187500.0224,-172282.463,-185818.523,-183027.863,-187500.0224,-187500.0224,0.346,-0.068,0.916,192,0,0,0,0,0,0,0,0,0,0
 2023-06-27 18:21:42.612,-187500.0224,-187500.0224,-187500.0224,-172447.9777,-186228.7222,-183333.7019,-187500.0224,-187500.0224,0.346,-0.068,0.916,192,0,0,0,0,0,0,0,0,0,0
 2023-06-27 18:21:42.612,-187500.0224,-187500.0224,-187500.0224,-173234.4238,-187500.0224,-184783.7937,-187500.0224,-187500.0224,0.346,-0.068,0.916,192,0,0,0,0,0,0,0,0,0,0
 2023-06-27 18:21:42.612,-187500.0224,-187500.0224,-187500.0224,-173512.6136,-187500.0224,-185285.7021,-187500.0224,-187500.0224,0.346,-0.068,0.916,192,0,0,0,0,0,0,0,0,0,0
 2023-06-27 18:21:42.612,-187500.0224,-187500.0224,-187500.0224,-172949.9978,-186843.4399,-184246.413,-187500.0224,-187500.0224,0.346,-0.068,0.916,192,0,0,0,0,0,0,0,0,0,0
 2023-06-27 18:21:42.612,-187500.0224,-187500.0224,-187500.0224,-172290.7778,-185824.9603,-183039.173,-187500.0224,-187500.0224,0.346,-0.068,0.916,192,0,0,0,0,0,0,0,0,0,0
 2023-06-27 18:21:42.612,-187500.0224,-187500.0224,-187500.0224,-172438.9252,-186207.7339,-183313.5853,-187500.0224,-187500.0224,0.346,-0.068,0.916,192,0,0,0,0,0,0,0,0,0,0
 2023-06-27 18:21:42.612,-187500.0224,-187500.0224,-187500.0224,-173224.3208,-187500.0224,-184762.9618,-187500.0224,-187500.0224,0.346,-0.068,0.916,192,0,0,0,0,0,0,0,0,0,0
 2023-06-27 18:21:42.612,-187500.0224,-187500.0224,-187500.0224,-173514.3347,-187500.0224,-185289.0772,-187500.0224,-187500.0224,0.344,-0.07,0.918,192,10,192,253,208,28,176,0,0,0,0
 2023-06-27 18:21:43.090,-187500.0224,-187500.0224,-187500.0224,-172966.4264,-186868.1832,-184274.6433,-187500.0224,-187500.0224,0.344,-0.07,0.918,192,0,0,0,0,0,0,0,0,0,0
 2023-06-27 18:21:43.090,-187500.0224,-187500.0224,-187500.0224,-172297.7739,-185831.3082,-183049.6559,-187500.0224,-187500.0224,0.344,-0.07,0.918,192,0,0,0,0,0,0,0,0,0,0
 2023-06-27 18:21:43.090,-187500.0224,-187500.0224,-187500.0224,-172429.8727,-186188.6232,-183295.3016,-187500.0224,-187500.0224,0.344,-0.07,0.918,192,0,0,0,0,0,0,0,0,0,0
 2023-06-27 18:21:43.090,-187500.0224,-187500.0224,-187500.0224,-173214.3296,-187500.0224,-184743.0241,-187500.0224,-187500.0224,0.344,-0.07,0.918,192,0,0,0,0,0,0,0,0,0,0
 2023-06-27 18:21:43.090,-187500.0224,-187500.0224,-187500.0224,-173519.9673,-187500.0224,-185297.1685,-187500.0224,-187500.0224,0.344,-0.07,0.918,192,0,0,0,0,0,0,0,0,0,0
 2023-06-27 18:21:43.090,-187500.0224,-187500.0224,-187500.0224,-172983.5702,-186894.0442,-184304.2146,-187500.0224,-187500.0224,0.344,-0.07,0.918,192,0,0,0,0,0,0,0,0,0,0
 2023-06-27 18:21:43.090,-187500.0224,-187500.0224,-187500.0224,-172306.1558,-185839.243,-183062.307,-187500.0224,-187500.0224,0.344,-0.07,0.918,192,0,0,0,0,0,0,0,0,0,0
 2023-06-27 18:21:43.090,-187500.0224,-187500.0224,-187500.0224,-172420.105,-186168.0372,-183275.8332,-187500.0224,-187500.0224,0.344,-0.07,0.918,192,0,0,0,0,0,0,0,0,0,0
 2023-06-27 18:21:43.090,-187500.0224,-187500.0224,-187500.0224,-173200.315,-187493.9427,-184718.236,-187500.0224,-187500.0224,0.344,-0.07,0.918,192,0,0,0,0,0,0,0,0,0,0
 2023-06-27 18:21:43.090,-187500.0224,-187500.0224,-187500.0224,-173521.152,-187500.0224,-185300.8119,-187500.0224,-187500.0224,0.34,-0.066,0.918,192,10,160,253,240,28,176,0,0,0,0
 2023-06-27 18:21:43.090,-187500.0224,-187500.0224,-187500.0224,-172997.5176,-186917.7594,-184331.5508,-187500.0224,-187500.0224,0.34,-0.066,0.918,192,0,0,0,0,0,0,0,0,0,0
 2023-06-27 18:21:43.090,-187500.0224,-187500.0224,-187500.0224,-172311.9673,-185845.0098,-183072.9911,-187500.0224,-187500.0224,0.34,-0.066,0.918,192,0,0,0,0,0,0,0,0,0,0
 2023-06-27 18:21:43.090,-187500.0224,-187500.0224,-187500.0224,-172410.9632,-186149.1723,-183258.7788,-187500.0224,-187500.0224,0.34,-0.066,0.918,192,0,0,0,0,0,0,0,0,0,0
 2023-06-27 18:21:43.090,-187500.0224,-187500.0224,-187500.0224,-173191.8661,-187477.8494,-184700.5111,-187500.0224,-187500.0224,0.34,-0.066,0.918,192,0,0,0,0,0,0,0,0,0,0
 2023-06-27 18:21:43.090,-187500.0224,-187500.0224,-187500.0224,-173526.8293,-187500.0224,-185308.4115,-187500.0224,-187500.0224,0.34,-0.066,0.918,192,0,0,0,0,0,0,0,0,0,0
 2023-06-27 18:21:43.090,-187500.0224,-187500.0224,-187500.0224,-173016.4049,-186945.2744,-184362.955,-187500.0224,-187500.0224,0.34,-0.066,0.918,192,0,0,0,0,0,0,0,0,0,0
 2023-06-27 18:21:43.090,-187500.0224,-187500.0224,-187500.0224,-172320.461,-185853.4364,-183086.2904,-187500.0224,-187500.0224,0.34,-0.066,0.918,192,0,0,0,0,0,0,0,0,0,0
 2023-06-27 18:21:43.090,-187500.0224,-187500.0224,-187500.0224,-172405.487,-186134.2414,-183245.3231,-187500.0224,-187500.0224,0.34,-0.066,0.918,192,0,0,0,0,0,0,0,0,0,0
 2023-06-27 18:21:43.090,-187500.0224,-187500.0224,-187500.0224,-173186.2111,-187465.0195,-184685.7366,-187500.0224,-187500.0224,0.34,-0.066,0.918,192,0,0,0,0,0,0,0,0,0,0
 2023-06-27 18:21:43.090,-187500.0224,-187500.0224,-187500.0224,-173537.9605,-187500.0224,-185322.5154,-187500.0224,-187500.0224,0.344,-0.064,0.92,192,10,192,254,0,28,192,0,0,0,0
 2023-06-27 18:21:43.090,-187500.0224,-187500.0224,-187500.0224,-173036.0521,-186973.147,-184395.1192,-187500.0224,-187500.0224,0.344,-0.064,0.92,192,0,0,0,0,0,0,0,0,0,0
 2023-06-27 18:21:43.090,-187500.0224,-187500.0224,-187500.0224,-172330.6981,-185863.7405,-183102.0708,-187500.0224,-187500.0224,0.344,-0.064,0.92,192,0,0,0,0,0,0,0,0,0,0
 2023-06-27 18:21:43.090,-187500.0224,-187500.0224,-187500.0224,-172400.1673,-186119.3551,-183232.7614,-187500.0224,-187500.0224,0.344,-0.064,0.92,192,0,0,0,0,0,0,0,0,0,0
 2023-06-27 18:21:43.090,-187500.0224,-187500.0224,-187500.0224,-173178.1644,-187447.8757,-184667.3411,-187500.0224,-187500.0224,0.344,-0.064,0.92,192,0,0,0,0,0,0,0,0,0,0
 2023-06-27 18:21:43.090,-187500.0224,-187500.0224,-187500.0224,-173543.0567,-187500.0224,-185329.5339,-187500.0224,-187500.0224,0.344,-0.064,0.92,192,0,0,0,0,0,0,0,0,0,0
 2023-06-27 18:21:43.090,-187500.0224,-187500.0224,-187500.0224,-173058.8061,-187006.1829,-184432.4242,-187500.0224,-187500.0224,0.344,-0.064,0.92,192,0,0,0,0,0,0,0,0,0,0
 2023-06-27 18:21:43.090,-187500.0224,-187500.0224,-187500.0224,-172343.2821,-185877.2857,-183121.785,-187500.0224,-187500.0224,0.344,-0.064,0.92,192,0,0,0,0,0,0,0,0,0,0
 2023-06-27 18:21:43.090,-187500.0224,-187500.0224,-187500.0224,-172397.1498,-186108.8274,-183225.8324,-187500.0224,-187500.0224,0.344,-0.064,0.92,192,0,0,0,0,0,0,0,0,0,0
 2023-06-27 18:21:43.090,-187500.0224,-187500.0224,-187500.0224,-173174.3199,-187438.8456,-184659.3615,-187500.0224,-187500.0224,0.344,-0.064,0.92,192,0,0,0,0,0,0,0,0,0,0
 2023-06-27 18:21:43.090,-187500.0224,-187500.0224,-187500.0224,-173552.9361,-187500.0224,-185345.1801,-187500.0224,-187500.0224,0.344,-0.066,0.916,192,10,192,253,240,28,160,0,0,0,0
 2023-06-27 18:21:43.090,-187500.0224,-187500.0224,-187500.0224,-173080.3979,-187036.8942,-184470.1316,-187500.0224,-187500.0224,0.344,-0.066,0.916,192,0,0,0,0,0,0,0,0,0,0
 2023-06-27 18:21:43.090,-187500.0224,-187500.0224,-187500.0224,-172357.3413,-185891.8143,-183144.2709,-187500.0224,-187500.0224,0.344,-0.066,0.916,192,0,0,0,0,0,0,0,0,0,0
 2023-06-27 18:21:43.090,-187500.0224,-187500.0224,-187500.0224,-172393.2382,-186092.4436,-183213.3824,-187500.0224,-187500.0224,0.344,-0.066,0.916,192,0,0,0,0,0,0,0,0,0,0
 2023-06-27 18:21:43.090,-187500.0224,-187500.0224,-187500.0224,-173160.0148,-187411.4871,-184630.1925,-187500.0224,-187500.0224,0.344,-0.066,0.916,192,0,0,0,0,0,0,0,0,0,0
 2023-06-27 18:21:43.090,-187500.0224,-187500.0224,-187500.0224,-173553.8973,-187500.0224,-185347.4153,-187500.0224,-187500.0224,0.344,-0.066,0.916,192,0,0,0,0,0,0,0,0,0,0
 2023-06-27 18:21:43.090,-187500.0224,-187500.0224,-187500.0224,-173099.8216,-187066.0185,-184503.4134,-187500.0224,-187500.0224,0.344,-0.066,0.916,192,0,0,0,0,0,0,0,0,0,0
 2023-06-27 18:21:43.090,-187500.0224,-187500.0224,-187500.0224,-172369.8583,-185904.9795,-183163.4263,-187500.0224,-187500.0224,0.344,-0.066,0.916,192,0,0,0,0,0,0,0,0,0,0
 2023-06-27 18:21:43.090,-187500.0224,-187500.0224,-187500.0224,-172390.2207,-186079.5243,-183203.4583,-187500.0224,-187500.0224,0.344,-0.066,0.916,192,0,0,0,0,0,0,0,0,0,0
 2023-06-27 18:21:43.090,-187500.0224,-187500.0224,-187500.0224,-173153.8904,-187396.3773,-184614.0992,-187500.0224,-187500.0224,0.344,-0.066,0.916,192,0,0,0,0,0,0,0,0,0,0
 2023-06-27 18:21:43.090,-187500.0224,-187500.0224,-187500.0224,-173562.011,-187500.0224,-185357.8088,-187500.0224,-187500.0224,0.344,-0.066,0.922,192,10,192,253,240,28,208,0,0,0,0
 2023-06-27 18:21:43.090,-187500.0224,-187500.0224,-187500.0224,-173119.3347,-187095.2099,-184537.388,-187500.0224,-187500.0224,0.344,-0.066,0.922,192,0,0,0,0,0,0,0,0,0,0
 2023-06-27 18:21:43.090,-187500.0224,-187500.0224,-187500.0224,-172381.9506,-185918.5247,-183183.5652,-187500.0224,-187500.0224,0.344,-0.066,0.922,192,0,0,0,0,0,0,0,0,0,0
 2023-06-27 18:21:43.090,-187500.0224,-187500.0224,-187500.0224,-172387.695,-186069.1531,-183196.8198,-187500.0224,-187500.0224,0.344,-0.066,0.922,192,0,0,0,0,0,0,0,0,0,0
 2023-06-27 18:21:43.090,-187500.0224,-187500.0224,-187500.0224,-173145.3297,-187379.9488,-184598.073,-187500.0224,-187500.0224,0.344,-0.066,0.922,192,0,0,0,0,0,0,0,0,0,0
 2023-06-27 18:21:43.090,-187500.0224,-187500.0224,-187500.0224,-173568.6494,-187500.0224,-185367.3083,-187500.0224,-187500.0224,0.344,-0.066,0.922,192,0,0,0,0,0,0,0,0,0,0
 2023-06-27 18:21:43.091,-187500.0224,-187500.0224,-187500.0224,-173140.837,-187125.2283,-184572.8379,-187500.0224,-187500.0224,0.344,-0.066,0.922,192,0,0,0,0,0,0,0,0,0,0
 2023-06-27 18:21:43.091,-187500.0224,-187500.0224,-187500.0224,-172395.8981,-185933.3662,-183205.6264,-187500.0224,-187500.0224,0.344,-0.066,0.922,192,0,0,0,0,0,0,0,0,0,0
 2023-06-27 18:21:43.091,-187500.0224,-187500.0224,-187500.0224,-172384.9904,-186056.9937,-183188.9743,-187500.0224,-187500.0224,0.344,-0.066,0.922,192,0,0,0,0,0,0,0,0,0,0
 2023-06-27 18:21:43.091,-187500.0224,-187500.0224,-187500.0224,-173137.0372,-187361.5309,-184579.8563,-187500.0224,-187500.0224,0.344,-0.066,0.922,192,0,0,0,0,0,0,0,0,0,0
 2023-06-27 18:21:43.091,-187500.0224,-187500.0224,-187500.0224,-173573.388,-187500.0224,-185374.1926,-187500.0224,-187500.0224,0.346,-0.062,0.922,192,10,208,254,16,28,208,0,0,0,0
 2023-06-27 18:21:43.091,-187500.0224,-187500.0224,-187500.0224,-173157.6902,-187150.5305,-184603.3257,-187500.0224,-187500.0224,0.346,-0.062,0.922,192,0,0,0,0,0,0,0,0,0,0
 2023-06-27 18:21:43.091,-187500.0224,-187500.0224,-187500.0224,-172408.5715,-185947.1573,-183226.4359,-187500.0224,-187500.0224,0.346,-0.062,0.922,192,0,0,0,0,0,0,0,0,0,0
 2023-06-27 18:21:43.091,-187500.0224,-187500.0224,-187500.0224,-172382.2188,-186043.7615,-183179.6313,-187500.0224,-187500.0224,0.346,-0.062,0.922,192,0,0,0,0,0,0,0,0,0,0
 2023-06-27 18:21:43.091,-187500.0224,-187500.0224,-187500.0224,-173125.5708,-187338.3969,-184555.5376,-187500.0224,-187500.0224,0.346,-0.062,0.922,192,0,0,0,0,0,0,0,0,0,0
 2023-06-27 18:21:43.091,-187500.0224,-187500.0224,-187500.0224,-173579.423,-187500.0224,-185381.144,-187500.0224,-187500.0224,0.346,-0.062,0.922,192,0,0,0,0,0,0,0,0,0,0
 2023-06-27 18:21:43.091,-187500.0224,-187500.0224,-187500.0224,-173182.8807,-187186.2486,-184643.4471,-187500.0224,-187500.0224,0.346,-0.062,0.922,192,0,0,0,0,0,0,0,0,0,0
 2023-06-27 18:21:43.091,-187500.0224,-187500.0224,-187500.0224,-172425.5589,-185966.5809,-183252.9897,-187500.0224,-187500.0224,0.346,-0.062,0.922,192,0,0,0,0,0,0,0,0,0,0
 2023-06-27 18:21:43.091,-187500.0224,-187500.0224,-187500.0224,-172381.8388,-186034.8879,-183174.9822,-187500.0224,-187500.0224,0.346,-0.062,0.922,192,0,0,0,0,0,0,0,0,0,0
 2023-06-27 18:21:43.091,-187500.0224,-187500.0224,-187500.0224,-173119.0664,-187321.8566,-184538.9527,-187500.0224,-187500.0224,0.346,-0.062,0.922,192,0,0,0,0,0,0,0,0,0,0
 2023-06-27 18:21:43.091,-187500.0224,-187500.0224,-187500.0224,-173585.8156,-187500.0224,-185388.9224,-187500.0224,-187500.0224,0.344,-0.064,0.924,192,10,192,254,0,28,224,0,0,0,0
 2023-06-27 18:21:43.091,-187500.0224,-187500.0224,-187500.0224,-173200.9632,-187214.1212,-184676.1924,-187500.0224,-187500.0224,0.344,-0.064,0.924,192,0,0,0,0,0,0,0,0,0,0
 2023-06-27 18:21:43.091,-187500.0224,-187500.0224,-187500.0224,-172439.9981,-185984.507,-183278.4931,-187500.0224,-187500.0224,0.344,-0.064,0.924,192,0,0,0,0,0,0,0,0,0,0
 2023-06-27 18:21:43.091,-187500.0224,-187500.0224,-187500.0224,-172380.1625,-186026.1036,-183171.54,-187500.0224,-187500.0224,0.344,-0.064,0.924,192,0,0,0,0,0,0,0,0,0,0
 2023-06-27 18:21:43.091,-187500.0224,-187500.0224,-187500.0224,-173111.3327,-187304.9587,-184523.5747,-187500.0224,-187500.0224,0.344,-0.064,0.924,192,0,0,0,0,0,0,0,0,0,0
 2023-06-27 18:21:43.091,-187500.0224,-187500.0224,-187500.0224,-173590.3306,-187500.0224,-185395.8962,-187500.0224,-187500.0224,0.344,-0.064,0.924,192,0,0,0,0,0,0,0,0,0,0
 2023-06-27 18:21:43.091,-187500.0224,-187500.0224,-187500.0224,-173221.5045,-187243.782,-184712.0669,-187500.0224,-187500.0224,0.344,-0.064,0.924,192,0,0,0,0,0,0,0,0,0,0
 2023-06-27 18:21:43.091,-187500.0224,-187500.0224,-187500.0224,-172454.1244,-186001.025,-183303.527,-187500.0224,-187500.0224,0.344,-0.064,0.924,192,0,0,0,0,0,0,0,0,0,0
 2023-06-27 18:21:43.091,-187500.0224,-187500.0224,-187500.0224,-172379.3802,-186017.0735,-183168.5672,-187500.0224,-187500.0224,0.344,-0.064,0.924,192,0,0,0,0,0,0,0,0,0,0
 2023-06-27 18:21:43.091,-187500.0224,-187500.0224,-187500.0224,-173105.0742,-187287.4349,-184507.5261,-187500.0224,-187500.0224,0.344,-0.064,0.924,192,0,0,0,0,0,0,0,0,0,0
 2023-06-27 18:21:43.091,-187500.0224,-187500.0224,-187500.0224,-173597.3938,-187500.0224,-185403.8534,-187500.0224,-187500.0224,0.344,-0.07,0.922,192,10,192,253,208,28,208,0,0,0,0
 2023-06-27 18:21:43.091,-187500.0224,-187500.0224,-187500.0224,-173244.4821,-187275.0297,-184748.5897,-187500.0224,-187500.0224,0.344,-0.07,0.922,192,0,0,0,0,0,0,0,0,0,0
 2023-06-27 18:21:43.091,-187500.0224,-187500.0224,-187500.0224,-172471.0223,-186020.4039,-183330.5503,-187500.0224,-187500.0224,0.344,-0.07,0.922,192,0,0,0,0,0,0,0,0,0,0
 2023-06-27 18:21:43.091,-187500.0224,-187500.0224,-187500.0224,-172379.9389,-186010.9044,-183167.9637,-187500.0224,-187500.0224,0.344,-0.07,0.922,192,0,0,0,0,0,0,0,0,0,0
 2023-06-27 18:21:43.091,-187500.0224,-187500.0224,-187500.0224,-173098.9946,-187273.2192,-184495.635,-187500.0224,-187500.0224,0.344,-0.07,0.922,192,0,0,0,0,0,0,0,0,0,0
 2023-06-27 18:21:43.091,-187500.0224,-187500.0224,-187500.0224,-173602.0429,-187500.0224,-185411.4753,-187500.0224,-187500.0224,0.344,-0.07,0.922,192,0,0,0,0,0,0,0,0,0,0
 2023-06-27 18:21:43.091,-187500.0224,-187500.0224,-187500.0224,-173263.2128,-187302.1647,-184782.3408,-187500.0224,-187500.0224,0.344,-0.07,0.922,192,0,0,0,0,0,0,0,0,0,0
 2023-06-27 18:21:43.091,-187500.0224,-187500.0224,-187500.0224,-172484.7463,-186035.7149,-183354.8466,-187500.0224,-187500.0224,0.344,-0.07,0.922,192,0,0,0,0,0,0,0,0,0,0
 2023-06-27 18:21:43.091,-187500.0224,-187500.0224,-187500.0224,-172375.8262,-185994.8335,-183157.369,-187500.0224,-187500.0224,0.344,-0.07,0.922,192,0,0,0,0,0,0,0,0,0,0
 2023-06-27 18:21:43.091,-187500.0224,-187500.0224,-187500.0224,-173078.0733,-187234.4389,-184455.2677,-187500.0224,-187500.0224,0.344,-0.07,0.922,192,0,0,0,0,0,0,0,0,0,0
 2023-06-27 18:21:43.091,-187500.0224,-187500.0224,-187500.0224,-173597.1032,-187500.0224,-185403.0711,-187500.0224,-187500.0224,0.34,-0.07,0.922,192,10,160,253,208,28,208,0,0,0,0
 2023-06-27 18:21:43.091,-187500.0224,-187500.0224,-187500.0224,-173278.2332,-187326.2599,-184809.0288,-187500.0224,-187500.0224,0.34,-0.07,0.922,192,0,0,0,0,0,0,0,0,0,0
 2023-06-27 18:21:43.091,-187500.0224,-187500.0224,-187500.0224,-172499.8561,-186054.2892,-183379.2547,-187500.0224,-187500.0224,0.34,-0.07,0.922,192,0,0,0,0,0,0,0,0,0,0
 2023-06-27 18:21:43.091,-187500.0224,-187500.0224,-187500.0224,-172375.6251,-185986.7422,-183153.0327,-187500.0224,-187500.0224,0.34,-0.07,0.922,192,0,0,0,0,0,0,0,0,0,0
 2023-06-27 18:21:43.091,-187500.0224,-187500.0224,-187500.0224,-173073.223,-187218.748,-184439.0851,-187500.0224,-187500.0224,0.34,-0.07,0.922,192,0,0,0,0,0,0,0,0,0,0
 2023-06-27 18:21:43.091,-187500.0224,-187500.0224,-187500.0224,-173605.6192,-187500.0224,-185412.1236,-187500.0224,-187500.0224,0.34,-0.07,0.922,192,0,0,0,0,0,0,0,0,0,0
 2023-06-27 18:21:43.091,-187500.0224,-187500.0224,-187500.0224,-173299.4674,-187357.0382,-184844.2104,-187500.0224,-187500.0224,0.34,-0.07,0.922,192,0,0,0,0,0,0,0,0,0,0
 2023-06-27 18:21:43.091,-187500.0224,-187500.0224,-187500.0224,-172518.0504,-186075.9257,-183408.1779,-187500.0224,-187500.0224,0.34,-0.07,0.922,192,0,0,0,0,0,0,0,0,0,0
 2023-06-27 18:21:43.091,-187500.0224,-187500.0224,-187500.0224,-172376.0944,-185979.9026,-183151.1775,-187500.0224,-187500.0224,0.34,-0.07,0.922,192,0,0,0,0,0,0,0,0,0,0
 2023-06-27 18:21:43.091,-187500.0224,-187500.0224,-187500.0224,-173059.4543,-187194.0493,-184415.0569,-187500.0224,-187500.0224,0.34,-0.07,0.922,192,0,0,0,0,0,0,0,0,0,0
 2023-06-27 18:21:43.091,-187500.0224,-187500.0224,-187500.0224,-173607.385,-187500.0224,-185413.7999,-187500.0224,-187500.0224,0.34,-0.07,0.928,192,10,160,253,208,29,0,0,0,0,0
 2023-06-27 18:21:43.091,-187500.0224,-187500.0224,-187500.0224,-173319.3604,-187385.045,-184876.5087,-187500.0224,-187500.0224,0.34,-0.07,0.928,192,0,0,0,0,0,0,0,0,0,0
 2023-06-27 18:21:43.091,-187500.0224,-187500.0224,-187500.0224,-172532.2214,-186092.9353,-183432.0272,-187500.0224,-187500.0224,0.34,-0.07,0.928,192,0,0,0,0,0,0,0,0,0,0
 2023-06-27 18:21:43.091,-187500.0224,-187500.0224,-187500.0224,-172374.6192,-185971.1407,-183147.0201,-187500.0224,-187500.0224,0.34,-0.07,0.928,192,0,0,0,0,0,0,0,0,0,0
 2023-06-27 18:21:43.091,-187500.0224,-187500.0224,-187500.0224,-173050.983,-187174.7151,-184396.1697,-187500.0224,-187500.0224,0.34,-0.07,0.928,192,0,0,0,0,0,0,0,0,0,0
 2023-06-27 18:21:43.091,-187500.0224,-187500.0224,-187500.0224,-173608.3685,-187500.0224,-185413.5764,-187500.0224,-187500.0224,0.34,-0.07,0.928,192,0,0,0,0,0,0,0,0,0,0
 2023-06-27 18:21:43.091,-187500.0224,-187500.0224,-187500.0224,-173334.8055,-187407.9555,-184903.2414,-187500.0224,-187500.0224,0.34,-0.07,0.928,192,0,0,0,0,0,0,0,0,0,0
 2023-06-27 18:21:43.091,-187500.0224,-187500.0224,-187500.0224,-172545.7889,-186109.2074,-183454.9825,-187500.0224,-187500.0224,0.34,-0.07,0.928,192,0,0,0,0,0,0,0,0,0,0
 2023-06-27 18:21:43.091,-187500.0224,-187500.0224,-187500.0224,-172372.6523,-185960.5907,-183140.6275,-187500.0224,-187500.0224,0.34,-0.07,0.928,192,0,0,0,0,0,0,0,0,0,0
 2023-06-27 18:21:43.091,-187500.0224,-187500.0224,-187500.0224,-173038.5778,-187149.2564,-184369.6382,-187500.0224,-187500.0224,0.34,-0.07,0.928,192,0,0,0,0,0,0,0,0,0,0
 2023-06-27 18:21:43.091,-187500.0224,-187500.0224,-187500.0224,-173608.9943,-187500.0224,-185412.1236,-187500.0224,-187500.0224,0.34,-0.07,0.92,192,10,160,253,208,28,192,0,0,0,0
 2023-06-27 18:21:43.091,-187500.0224,-187500.0224,-187500.0224,-173352.3069,-187434.3753,-184932.5669,-187500.0224,-187500.0224,0.34,-0.07,0.92,192,0,0,0,0,0,0,0,0,0,0
 2023-06-27 18:21:43.091,-187500.0224,-187500.0224,-187500.0224,-172564.6091,-186131.7827,-183483.5703,-187500.0224,-187500.0224,0.34,-0.07,0.92,192,0,0,0,0,0,0,0,0,0,0
 2023-06-27 18:21:43.091,-187500.0224,-187500.0224,-187500.0224,-172376.3627,-185957.1708,-183140.8287,-187500.0224,-187500.0224,0.34,-0.07,0.92,192,0,0,0,0,0,0,0,0,0,0
 2023-06-27 18:21:43.091,-187500.0224,-187500.0224,-187500.0224,-173033.3698,-187133.0067,-184352.7403,-187500.0224,-187500.0224,0.34,-0.07,0.92,192,0,0,0,0,0,0,0,0,0,0
 2023-06-27 18:21:43.091,-187500.0224,-187500.0224,-187500.0224,-173618.8738,-187500.0224,-185421.176,-187500.0224,-187500.0224,0.34,-0.07,0.92,192,0,0,0,0,0,0,0,0,0,0
 2023-06-27 18:21:43.092,-187500.0224,-187500.0224,-187500.0224,-173373.1387,-187462.6949,-184964.0381,-187500.0224,-187500.0224,0.34,-0.07,0.92,192,0,0,0,0,0,0,0,0,0,0
 2023-06-27 18:21:43.092,-187500.0224,-187500.0224,-187500.0224,-172576.7908,-186145.1937,-183501.9882,-187500.0224,-187500.0224,0.34,-0.07,0.92,192,0,0,0,0,0,0,0,0,0,0
 2023-06-27 18:21:43.092,-187500.0224,-187500.0224,-187500.0224,-172370.7077,-185941.9717,-183127.5741,-187500.0224,-187500.0224,0.34,-0.07,0.92,192,0,0,0,0,0,0,0,0,0,0
 2023-06-27 18:21:43.092,-187500.0224,-187500.0224,-187500.0224,-173016.5837,-187104.6423,-184321.8725,-187500.0224,-187500.0224,0.34,-0.07,0.92,192,0,0,0,0,0,0,0,0,0,0
 2023-06-27 18:21:43.092,-187500.0224,-187500.0224,-187500.0224,-173613.3306,-187500.0224,-185413.2411,-187500.0224,-187500.0224,0.344,-0.072,0.922,192,10,192,253,192,28,208,0,0,0,0
 2023-06-27 18:21:43.092,-187500.0224,-187500.0224,-187500.0224,-173384.9851,-187484.4655,-184987.6416,-187500.0224,-187500.0224,0.344,-0.072,0.922,192,0,0,0,0,0,0,0,0,0,0
 2023-06-27 18:21:43.092,-187500.0224,-187500.0224,-187500.0224,-172591.5876,-186166.2938,-183528.9667,-187500.0224,-187500.0224,0.344,-0.072,0.922,192,0,0,0,0,0,0,0,0,0,0
 2023-06-27 18:21:43.092,-187500.0224,-187500.0224,-187500.0224,-172370.3053,-185936.9872,-183127.2165,-187500.0224,-187500.0224,0.344,-0.072,0.922,192,0,0,0,0,0,0,0,0,0,0
 2023-06-27 18:21:43.092,-187500.0224,-187500.0224,-187500.0224,-173005.7207,-187083.5646,-184301.443,-187500.0224,-187500.0224,0.344,-0.072,0.922,192,0,0,0,0,0,0,0,0,0,0
 2023-06-27 18:21:43.092,-187500.0224,-187500.0224,-187500.0224,-173613.5764,-187500.0224,-185412.0788,-187500.0224,-187500.0224,0.344,-0.072,0.922,192,0,0,0,0,0,0,0,0,0,0
 2023-06-27 18:21:43.092,-187500.0224,-187500.0224,-187500.0224,-173401.3913,-187500.0224,-185015.6483,-187500.0224,-187500.0224,0.344,-0.072,0.922,192,0,0,0,0,0,0,0,0,0,0
 2023-06-27 18:21:43.092,-187500.0224,-187500.0224,-187500.0224,-172610.1396,-186190.4336,-183560.3262,-187500.0224,-187500.0224,0.344,-0.072,0.922,192,0,0,0,0,0,0,0,0,0,0
 2023-06-27 18:21:43.092,-187500.0224,-187500.0224,-187500.0224,-172375.0439,-185936.8978,-183133.095,-187500.0224,-187500.0224,0.344,-0.072,0.922,192,0,0,0,0,0,0,0,0,0,0
 2023-06-27 18:21:43.092,-187500.0224,-187500.0224,-187500.0224,-172996.2212,-187063.0234,-184282.3993,-187500.0224,-187500.0224,0.344,-0.072,0.922,192,0,0,0,0,0,0,0,0,0,0
 2023-06-27 18:21:43.092,-187500.0224,-187500.0224,-187500.0224,-173612.9953,-187500.0224,-185410.9389,-187500.0224,-187500.0224,0.344,-0.066,0.922,192,10,192,253,240,28,208,0,0,0,0
 2023-06-27 18:21:43.570,-187500.0224,-187500.0224,-187500.0224,-173416.2105,-187500.0224,-185042.2916,-187500.0224,-187500.0224,0.344,-0.066,0.922,192,0,0,0,0,0,0,0,0,0,0
 2023-06-27 18:21:43.570,-187500.0224,-187500.0224,-187500.0224,-172622.5671,-186207.108,-183584.3767,-187500.0224,-187500.0224,0.344,-0.066,0.922,192,0,0,0,0,0,0,0,0,0,0
 2023-06-27 18:21:43.570,-187500.0224,-187500.0224,-187500.0224,-172373.8593,-185929.41,-183130.9492,-187500.0224,-187500.0224,0.344,-0.066,0.922,192,0,0,0,0,0,0,0,0,0,0
 2023-06-27 18:21:43.570,-187500.0224,-187500.0224,-187500.0224,-172986.1406,-187040.694,-184260.7405,-187500.0224,-187500.0224,0.344,-0.066,0.922,192,0,0,0,0,0,0,0,0,0,0
 2023-06-27 18:21:43.570,-187500.0224,-187500.0224,-187500.0224,-173611.2295,-187500.0224,-185406.4686,-187500.0224,-187500.0224,0.344,-0.066,0.922,192,0,0,0,0,0,0,0,0,0,0
 2023-06-27 18:21:43.570,-187500.0224,-187500.0224,-187500.0224,-173429.0181,-187500.0224,-185065.828,-187500.0224,-187500.0224,0.344,-0.066,0.922,192,0,0,0,0,0,0,0,0,0,0
 2023-06-27 18:21:43.570,-187500.0224,-187500.0224,-187500.0224,-172638.9286,-186228.9233,-183613.0987,-187500.0224,-187500.0224,0.344,-0.066,0.922,192,0,0,0,0,0,0,0,0,0,0
 2023-06-27 18:21:43.570,-187500.0224,-187500.0224,-187500.0224,-172375.4462,-185924.8949,-183131.7986,-187500.0224,-187500.0224,0.344,-0.066,0.922,192,0,0,0,0,0,0,0,0,0,0
 2023-06-27 18:21:43.570,-187500.0224,-187500.0224,-187500.0224,-172975.7023,-187018.2081,-184238.9475,-187500.0224,-187500.0224,0.344,-0.066,0.922,192,0,0,0,0,0,0,0,0,0,0
 2023-06-27 18:21:43.570,-187500.0224,-187500.0224,-187500.0224,-173612.5482,-187500.0224,-185406.0439,-187500.0224,-187500.0224,0.346,-0.066,0.932,192,10,208,253,240,29,32,0,0,0,0
 2023-06-27 18:21:43.570,-187500.0224,-187500.0224,-187500.0224,-173447.4359,-187500.0224,-185094.2594,-187500.0224,-187500.0224,0.346,-0.066,0.932,192,0,0,0,0,0,0,0,0,0,0
 2023-06-27 18:21:43.570,-187500.0224,-187500.0224,-187500.0224,-172659.1122,-186253.175,-183643.7429,-187500.0224,-187500.0224,0.346,-0.066,0.932,192,0,0,0,0,0,0,0,0,0,0
 2023-06-27 18:21:43.570,-187500.0224,-187500.0224,-187500.0224,-172380.0284,-185924.9396,-183136.5819,-187500.0224,-187500.0224,0.346,-0.066,0.932,192,0,0,0,0,0,0,0,0,0,0
 2023-06-27 18:21:43.570,-187500.0224,-187500.0224,-187500.0224,-172969.2874,-187003.9254,-184226.3859,-187500.0224,-187500.0224,0.346,-0.066,0.932,192,0,0,0,0,0,0,0,0,0,0
 2023-06-27 18:21:43.570,-187500.0224,-187500.0224,-187500.0224,-173616.6386,-187500.0224,-185410.4472,-187500.0224,-187500.0224,0.346,-0.066,0.932,192,0,0,0,0,0,0,0,0,0,0
 2023-06-27 18:21:43.570,-187500.0224,-187500.0224,-187500.0224,-173464.4679,-187500.0224,-185122.8696,-187500.0224,-187500.0224,0.346,-0.066,0.932,192,0,0,0,0,0,0,0,0,0,0
 2023-06-27 18:21:43.570,-187500.0224,-187500.0224,-187500.0224,-172676.5913,-186275.3032,-183673.4708,-187500.0224,-187500.0224,0.346,-0.066,0.932,192,0,0,0,0,0,0,0,0,0,0
 2023-06-27 18:21:43.570,-187500.0224,-187500.0224,-187500.0224,-172382.6882,-185921.7433,-183139.2194,-187500.0224,-187500.0224,0.346,-0.066,0.932,192,0,0,0,0,0,0,0,0,0,0
 2023-06-27 18:21:43.570,-187500.0224,-187500.0224,-187500.0224,-172959.855,-186982.5348,-184206.2693,-187500.0224,-187500.0224,0.346,-0.066,0.932,192,0,0,0,0,0,0,0,0,0,0
 2023-06-27 18:21:43.570,-187500.0224,-187500.0224,-187500.0224,-173616.5716,-187500.0224,-185408.3014,-187500.0224,-187500.0224,0.342,-0.062,0.928,192,10,176,254,16,29,0,0,0,0,0
 2023-06-27 18:21:43.571,-187500.0224,-187500.0224,-187500.0224,-173478.5495,-187500.0224,-185147.5236,-187500.0224,-187500.0224,0.342,-0.062,0.928,192,0,0,0,0,0,0,0,0,0,0
 2023-06-27 18:21:43.571,-187500.0224,-187500.0224,-187500.0224,-172692.1258,-186295.5986,-183700.8516,-187500.0224,-187500.0224,0.342,-0.062,0.928,192,0,0,0,0,0,0,0,0,0,0
 2023-06-27 18:21:43.571,-187500.0224,-187500.0224,-187500.0224,-172386.1304,-185919.1505,-183142.0804,-187500.0224,-187500.0224,0.342,-0.062,0.928,192,0,0,0,0,0,0,0,0,0,0
 2023-06-27 18:21:43.571,-187500.0224,-187500.0224,-187500.0224,-172948.3438,-186958.6184,-184183.2246,-187500.0224,-187500.0224,0.342,-0.062,0.928,192,0,0,0,0,0,0,0,0,0,0
 2023-06-27 18:21:43.571,-187500.0224,-187500.0224,-187500.0224,-173614.0458,-187500.0224,-185402.6911,-187500.0224,-187500.0224,0.342,-0.062,0.928,192,0,0,0,0,0,0,0,0,0,0
 2023-06-27 18:21:43.571,-187500.0224,-187500.0224,-187500.0224,-173493.6146,-187500.0224,-185172.1776,-187500.0224,-187500.0224,0.342,-0.062,0.928,192,0,0,0,0,0,0,0,0,0,0
 2023-06-27 18:21:43.571,-187500.0224,-187500.0224,-187500.0224,-172710.2307,-186318.5315,-183729.976,-187500.0224,-187500.0224,0.342,-0.062,0.928,192,0,0,0,0,0,0,0,0,0,0
 2023-06-27 18:21:43.571,-187500.0224,-187500.0224,-187500.0224,-172388.5667,-185914.926,-183142.1921,-187500.0224,-187500.0224,0.342,-0.062,0.928,192,0,0,0,0,0,0,0,0,0,0
 2023-06-27 18:21:43.571,-187500.0224,-187500.0224,-187500.0224,-172937.8161,-186933.7856,-184157.386,-187500.0224,-187500.0224,0.342,-0.062,0.928,192,0,0,0,0,0,0,0,0,0,0
 2023-06-27 18:21:43.571,-187500.0224,-187500.0224,-187500.0224,-173619.0079,-187500.0224,-185402.8252,-187500.0224,-187500.0224,0.342,-0.068,0.926,192,10,176,253,224,28,240,0,0,0,0
 2023-06-27 18:21:43.571,-187500.0224,-187500.0224,-187500.0224,-173513.5524,-187500.0224,-185200.9219,-187500.0224,-187500.0224,0.342,-0.068,0.926,192,0,0,0,0,0,0,0,0,0,0
 2023-06-27 18:21:43.571,-187500.0224,-187500.0224,-187500.0224,-172731.3754,-186345.4206,-183762.2072,-187500.0224,-187500.0224,0.342,-0.068,0.926,192,0,0,0,0,0,0,0,0,0,0
 2023-06-27 18:21:43.571,-187500.0224,-187500.0224,-187500.0224,-172392.3889,-185913.7861,-183145.1426,-187500.0224,-187500.0224,0.342,-0.068,0.926,192,0,0,0,0,0,0,0,0,0,0
 2023-06-27 18:21:43.571,-187500.0224,-187500.0224,-187500.0224,-172928.6519,-186912.7973,-184136.1519,-187500.0224,-187500.0224,0.342,-0.068,0.926,192,0,0,0,0,0,0,0,0,0,0
 2023-06-27 18:21:43.571,-187500.0224,-187500.0224,-187500.0224,-173616.8174,-187500.0224,-185396.2538,-187500.0224,-187500.0224,0.342,-0.068,0.926,192,0,0,0,0,0,0,0,0,0,0
 2023-06-27 18:21:43.571,-187500.0224,-187500.0224,-187500.0224,-173523.6107,-187500.0224,-185219.7197,-187500.0224,-187500.0224,0.342,-0.068,0.926,192,0,0,0,0,0,0,0,0,0,0
 2023-06-27 18:21:43.571,-187500.0224,-187500.0224,-187500.0224,-172746.3734,-186366.5877,-183788.8058,-187500.0224,-187500.0224,0.342,-0.068,0.926,192,0,0,0,0,0,0,0,0,0,0
 2023-06-27 18:21:43.571,-187500.0224,-187500.0224,-187500.0224,-172394.8699,-185911.4168,-183146.819,-187500.0224,-187500.0224,0.342,-0.068,0.926,192,0,0,0,0,0,0,0,0,0,0
 2023-06-27 18:21:43.571,-187500.0224,-187500.0224,-187500.0224,-172918.6383,-186890.5126,-184113.2637,-187500.0224,-187500.0224,0.342,-0.068,0.926,192,0,0,0,0,0,0,0,0,0,0
 2023-06-27 18:21:43.571,-187500.0224,-187500.0224,-187500.0224,-173615.4093,-187500.0224,-185390.0177,-187500.0224,-187500.0224,0.346,-0.068,0.93,192,10,208,253,224,29,16,0,0,0,0
 2023-06-27 18:21:43.571,-187500.0224,-187500.0224,-187500.0224,-173538.2958,-187500.0224,-185243.0103,-187500.0224,-187500.0224,0.346,-0.068,0.93,192,0,0,0,0,0,0,0,0,0,0
 2023-06-27 18:21:43.571,-187500.0224,-187500.0224,-187500.0224,-172762.5338,-186389.0959,-183816.3208,-187500.0224,-187500.0224,0.346,-0.068,0.93,192,0,0,0,0,0,0,0,0,0,0
 2023-06-27 18:21:43.571,-187500.0224,-187500.0224,-187500.0224,-172395.5628,-185906.343,-183145.3214,-187500.0224,-187500.0224,0.346,-0.068,0.93,192,0,0,0,0,0,0,0,0,0,0
 2023-06-27 18:21:43.571,-187500.0224,-187500.0224,-187500.0224,-172904.6238,-186862.9976,-184084.6087,-187500.0224,-187500.0224,0.346,-0.068,0.93,192,0,0,0,0,0,0,0,0,0,0
 2023-06-27 18:21:43.571,-187500.0224,-187500.0224,-187500.0224,-173609.8437,-187500.0224,-185377.9701,-187500.0224,-187500.0224,0.346,-0.068,0.93,192,0,0,0,0,0,0,0,0,0,0
 2023-06-27 18:21:43.571,-187500.0224,-187500.0224,-187500.0224,-173551.5503,-187500.0224,-185263.1268,-187500.0224,-187500.0224,0.346,-0.068,0.93,192,0,0,0,0,0,0,0,0,0,0
 2023-06-27 18:21:43.571,-187500.0224,-187500.0224,-187500.0224,-172780.7504,-186414.0852,-183845.5345,-187500.0224,-187500.0224,0.346,-0.068,0.93,192,0,0,0,0,0,0,0,0,0,0
 2023-06-27 18:21:43.571,-187500.0224,-187500.0224,-187500.0224,-172395.004,-185901.4479,-183143.8015,-187500.0224,-187500.0224,0.346,-0.068,0.93,192,0,0,0,0,0,0,0,0,0,0
 2023-06-27 18:21:43.571,-187500.0224,-187500.0224,-187500.0224,-172887.1894,-186831.9958,-184052.0646,-187500.0224,-187500.0224,0.346,-0.068,0.93,192,0,0,0,0,0,0,0,0,0,0
 2023-06-27 18:21:43.571,-187500.0224,-187500.0224,-187500.0224,-173602.0876,-187500.0224,-185363.1956,-187500.0224,-187500.0224,0.346,-0.066,0.93,192,10,208,253,240,29,16,0,0,0,0
 2023-06-27 18:21:43.571,-187500.0224,-187500.0224,-187500.0224,-173557.9653,-187500.0224,-185276.0908,-187500.0224,-187500.0224,0.346,-0.066,0.93,192,0,0,0,0,0,0,0,0,0,0
 2023-06-27 18:21:43.571,-187500.0224,-187500.0224,-187500.0224,-172796.7543,-186436.4146,-183871.686,-187500.0224,-187500.0224,0.346,-0.066,0.93,192,0,0,0,0,0,0,0,0,0,0
 2023-06-27 18:21:43.571,-187500.0224,-187500.0224,-187500.0224,-172401.9554,-185903.9513,-183148.8753,-187500.0224,-187500.0224,0.346,-0.066,0.93,192,0,0,0,0,0,0,0,0,0,0
 2023-06-27 18:21:43.571,-187500.0224,-187500.0224,-187500.0224,-172876.7959,-186809.4876,-184027.5447,-187500.0224,-187500.0224,0.346,-0.066,0.93,192,0,0,0,0,0,0,0,0,0,0
 2023-06-27 18:21:43.571,-187500.0224,-187500.0224,-187500.0224,-173597.0808,-187500.0224,-185351.4609,-187500.0224,-187500.0224,0.346,-0.066,0.93,192,0,0,0,0,0,0,0,0,0,0
 2023-06-27 18:21:43.571,-187500.0224,-187500.0224,-187500.0224,-173572.628,-187500.0224,-185297.2356,-187500.0224,-187500.0224,0.346,-0.066,0.93,192,0,0,0,0,0,0,0,0,0,0
 2023-06-27 18:21:43.571,-187500.0224,-187500.0224,-187500.0224,-172816.4685,-186463.4826,-183902.4644,-187500.0224,-187500.0224,0.346,-0.066,0.93,192,0,0,0,0,0,0,0,0,0,0
 2023-06-27 18:21:43.571,-187500.0224,-187500.0224,-187500.0224,-172404.0565,-185902.2973,-183150.1717,-187500.0224,-187500.0224,0.346,-0.066,0.93,192,0,0,0,0,0,0,0,0,0,0
 2023-06-27 18:21:43.571,-187500.0224,-187500.0224,-187500.0224,-172868.0787,-186789.2592,-184005.9753,-187500.0224,-187500.0224,0.346,-0.066,0.93,192,0,0,0,0,0,0,0,0,0,0
 2023-06-27 18:21:43.571,-187500.0224,-187500.0224,-187500.0224,-173596.6562,-187500.0224,-185344.6213,-187500.0224,-187500.0224,0.346,-0.068,0.918,192,10,208,253,224,28,176,0,0,0,0
 2023-06-27 18:21:43.571,-187500.0224,-187500.0224,-187500.0224,-173584.4745,-187500.0224,-185315.3852,-187500.0224,-187500.0224,0.346,-0.068,0.918,192,0,0,0,0,0,0,0,0,0,0
 2023-06-27 18:21:43.571,-187500.0224,-187500.0224,-187500.0224,-172832.5841,-186486.7507,-183929.4206,-187500.0224,-187500.0224,0.346,-0.068,0.918,192,0,0,0,0,0,0,0,0,0,0
 2023-06-27 18:21:43.571,-187500.0224,-187500.0224,-187500.0224,-172407.074,-185901.2468,-183151.9152,-187500.0224,-187500.0224,0.346,-0.068,0.918,192,0,0,0,0,0,0,0,0,0,0
 2023-06-27 18:21:43.571,-187500.0224,-187500.0224,-187500.0224,-172854.9359,-186763.8453,-183978.9073,-187500.0224,-187500.0224,0.346,-0.068,0.918,192,0,0,0,0,0,0,0,0,0,0
 2023-06-27 18:21:43.571,-187500.0224,-187500.0224,-187500.0224,-173593.1916,-187500.0224,-185334.0489,-187500.0224,-187500.0224,0.346,-0.068,0.918,192,0,0,0,0,0,0,0,0,0,0
 2023-06-27 18:21:43.571,-187500.0224,-187500.0224,-187500.0224,-173596.0303,-187500.0224,-185332.8196,-187500.0224,-187500.0224,0.346,-0.068,0.918,192,0,0,0,0,0,0,0,0,0,0
 2023-06-27 18:21:43.571,-187500.0224,-187500.0224,-187500.0224,-172851.2702,-186512.5223,-183958.5002,-187500.0224,-187500.0224,0.346,-0.068,0.918,192,0,0,0,0,0,0,0,0,0,0
 2023-06-27 18:21:43.572,-187500.0224,-187500.0224,-187500.0224,-172410.5161,-185901.515,-183154.5974,-187500.0224,-187500.0224,0.346,-0.068,0.918,192,0,0,0,0,0,0,0,0,0,0
 2023-06-27 18:21:43.572,-187500.0224,-187500.0224,-187500.0224,-172842.8883,-186740.7559,-183954.3875,-187500.0224,-187500.0224,0.346,-0.068,0.918,192,0,0,0,0,0,0,0,0,0,0
 2023-06-27 18:21:43.572,-187500.0224,-187500.0224,-187500.0224,-173589.9059,-187500.0224,-185324.6388,-187500.0224,-187500.0224,0.344,-0.068,0.918,192,10,192,253,224,28,176,0,0,0,0
 2023-06-27 18:21:43.572,-187500.0224,-187500.0224,-187500.0224,-173610.9166,-187500.0224,-185354.3443,-187500.0224,-187500.0224,0.344,-0.068,0.918,192,0,0,0,0,0,0,0,0,0,0
 2023-06-27 18:21:43.572,-187500.0224,-187500.0224,-187500.0224,-172868.3022,-186536.3939,-183986.127,-187500.0224,-187500.0224,0.344,-0.068,0.918,192,0,0,0,0,0,0,0,0,0,0
 2023-06-27 18:21:43.572,-187500.0224,-187500.0224,-187500.0224,-172416.9087,-185903.5043,-183159.3359,-187500.0224,-187500.0224,0.344,-0.068,0.918,192,0,0,0,0,0,0,0,0,0,0
 2023-06-27 18:21:43.572,-187500.0224,-187500.0224,-187500.0224,-172837.0098,-186722.9416,-183934.785,-187500.0224,-187500.0224,0.344,-0.068,0.918,192,0,0,0,0,0,0,0,0,0,0
 2023-06-27 18:21:43.572,-187500.0224,-187500.0224,-187500.0224,-173588.4978,-187500.0224,-185316.9275,-187500.0224,-187500.0224,0.344,-0.068,0.918,192,0,0,0,0,0,0,0,0,0,0
 2023-06-27 18:21:43.572,-187500.0224,-187500.0224,-187500.0224,-173621.5784,-187500.0224,-185371.6892,-187500.0224,-187500.0224,0.344,-0.068,0.918,192,0,0,0,0,0,0,0,0,0,0
 2023-06-27 18:21:43.572,-187500.0224,-187500.0224,-187500.0224,-172886.2283,-186562.6796,-184016.1901,-187500.0224,-187500.0224,0.344,-0.068,0.918,192,0,0,0,0,0,0,0,0,0,0
 2023-06-27 18:21:43.572,-187500.0224,-187500.0224,-187500.0224,-172420.8873,-185905.4042,-183164.5439,-187500.0224,-187500.0224,0.344,-0.068,0.918,192,0,0,0,0,0,0,0,0,0,0
 2023-06-27 18:21:43.572,-187500.0224,-187500.0224,-187500.0224,-172825.8339,-186702.7133,-183914.2661,-187500.0224,-187500.0224,0.344,-0.068,0.918,192,0,0,0,0,0,0,0,0,0,0
 2023-06-27 18:21:43.572,-187500.0224,-187500.0224,-187500.0224,-173583.8263,-187500.0224,-185307.2492,-187500.0224,-187500.0224,0.344,-0.068,0.918,192,0,0,0,0,0,0,0,0,0,0
 2023-06-27 18:21:43.572,-187500.0224,-187500.0224,-187500.0224,-173635.1459,-187500.0224,-185391.7611,-187500.0224,-187500.0224,0.344,-0.066,0.918,192,10,192,253,240,28,176,0,0,0,0
 2023-06-27 18:21:43.572,-187500.0224,-187500.0224,-187500.0224,-172906.1884,-186590.284,-184048.1754,-187500.0224,-187500.0224,0.344,-0.066,0.918,192,0,0,0,0,0,0,0,0,0,0
 2023-06-27 18:21:43.572,-187500.0224,-187500.0224,-187500.0224,-172423.5025,-185903.9737,-183166.3767,-187500.0224,-187500.0224,0.344,-0.066,0.918,192,0,0,0,0,0,0,0,0,0,0
 2023-06-27 18:21:43.572,-187500.0224,-187500.0224,-187500.0224,-172810.3441,-186672.6949,-183882.3478,-187500.0224,-187500.0224,0.344,-0.066,0.918,192,0,0,0,0,0,0,0,0,0,0
 2023-06-27 18:21:43.572,-187500.0224,-187500.0224,-187500.0224,-173573.7233,-187500.0224,-185286.7303,-187500.0224,-187500.0224,0.344,-0.066,0.918,192,0,0,0,0,0,0,0,0,0,0
 2023-06-27 18:21:43.572,-187500.0224,-187500.0224,-187500.0224,-173641.002,-187500.0224,-185401.2606,-187500.0224,-187500.0224,0.344,-0.066,0.918,192,0,0,0,0,0,0,0,0,0,0
 2023-06-27 18:21:43.572,-187500.0224,-187500.0224,-187500.0224,-172921.5664,-186613.9098,-184073.6787,-187500.0224,-187500.0224,0.344,-0.066,0.918,192,0,0,0,0,0,0,0,0,0,0
 2023-06-27 18:21:43.572,-187500.0224,-187500.0224,-187500.0224,-172425.8271,-185903.2584,-183167.2037,-187500.0224,-187500.0224,0.344,-0.066,0.918,192,0,0,0,0,0,0,0,0,0,0
 2023-06-27 18:21:43.572,-187500.0224,-187500.0224,-187500.0224,-172798.8777,-186648.7562,-183855.2351,-187500.0224,-187500.0224,0.344,-0.066,0.918,192,0,0,0,0,0,0,0,0,0,0
 2023-06-27 18:21:43.572,-187500.0224,-187500.0224,-187500.0224,-173570.5493,-187500.0224,-185273.2075,-187500.0224,-187500.0224,0.344,-0.066,0.918,192,0,0,0,0,0,0,0,0,0,0
 2023-06-27 18:21:43.572,-187500.0224,-187500.0224,-187500.0224,-173650.7921,-187500.0224,-185414.7611,-187500.0224,-187500.0224,0.344,-0.068,0.914,192,10,192,253,224,28,144,0,0,0,0
 2023-06-27 18:21:43.572,-187500.0224,-187500.0224,-187500.0224,-172939.4702,-186642.0059,-184103.5854,-187500.0224,-187500.0224,0.344,-0.068,0.914,192,0,0,0,0,0,0,0,0,0,0
 2023-06-27 18:21:43.572,-187500.0224,-187500.0224,-187500.0224,-172429.9845,-185906.7006,-183172.5682,-187500.0224,-187500.0224,0.344,-0.068,0.914,192,0,0,0,0,0,0,0,0,0,0
 2023-06-27 18:21:43.572,-187500.0224,-187500.0224,-187500.0224,-172786.2266,-186626.1138,-183830.8941,-187500.0224,-187500.0224,0.344,-0.068,0.914,192,0,0,0,0,0,0,0,0,0,0
 2023-06-27 18:21:43.572,-187500.0224,-187500.0224,-187500.0224,-173557.6971,-187500.0224,-185252.0851,-187500.0224,-187500.0224,0.344,-0.068,0.914,192,0,0,0,0,0,0,0,0,0,0
 2023-06-27 18:21:43.572,-187500.0224,-187500.0224,-187500.0224,-173653.6308,-187500.0224,-185420.9972,-187500.0224,-187500.0224,0.344,-0.068,0.914,192,0,0,0,0,0,0,0,0,0,0
 2023-06-27 18:21:43.572,-187500.0224,-187500.0224,-187500.0224,-172952.233,-186663.7095,-184127.1888,-187500.0224,-187500.0224,0.344,-0.068,0.914,192,0,0,0,0,0,0,0,0,0,0
 2023-06-27 18:21:43.572,-187500.0224,-187500.0224,-187500.0224,-172431.1244,-185907.4606,-183175.3174,-187500.0224,-187500.0224,0.344,-0.068,0.914,192,0,0,0,0,0,0,0,0,0,0
 2023-06-27 18:21:43.572,-187500.0224,-187500.0224,-187500.0224,-172773.9778,-186607.0702,-183810.7328,-187500.0224,-187500.0224,0.344,-0.068,0.914,192,0,0,0,0,0,0,0,0,0,0
 2023-06-27 18:21:43.572,-187500.0224,-187500.0224,-187500.0224,-173554.6125,-187500.0224,-185244.6419,-187500.0224,-187500.0224,0.344,-0.068,0.914,192,0,0,0,0,0,0,0,0,0,0
 2023-06-27 18:21:43.572,-187500.0224,-187500.0224,-187500.0224,-173665.276,-187500.0224,-185438.4539,-187500.0224,-187500.0224,0.342,-0.07,0.916,192,10,176,253,208,28,160,0,0,0,0
 2023-06-27 18:21:43.572,-187500.0224,-187500.0224,-187500.0224,-172970.2262,-186690.2187,-184157.1178,-187500.0224,-187500.0224,0.342,-0.07,0.916,192,0,0,0,0,0,0,0,0,0,0
 2023-06-27 18:21:43.572,-187500.0224,-187500.0224,-187500.0224,-172439.2605,-185915.1719,-183186.3815,-187500.0224,-187500.0224,0.342,-0.07,0.916,192,0,0,0,0,0,0,0,0,0,0
 2023-06-27 18:21:43.572,-187500.0224,-187500.0224,-187500.0224,-172772.2791,-186598.0848,-183802.0603,-187500.0224,-187500.0224,0.342,-0.07,0.916,192,0,0,0,0,0,0,0,0,0,0
 2023-06-27 18:21:43.572,-187500.0224,-187500.0224,-187500.0224,-173555.976,-187500.0224,-185241.8927,-187500.0224,-187500.0224,0.342,-0.07,0.916,192,0,0,0,0,0,0,0,0,0,0
 2023-06-27 18:21:43.572,-187500.0224,-187500.0224,-187500.0224,-173677.9942,-187500.0224,-185458.0564,-187500.0224,-187500.0224,0.342,-0.07,0.916,192,0,0,0,0,0,0,0,0,0,0
 2023-06-27 18:21:43.572,-187500.0224,-187500.0224,-187500.0224,-172993.092,-186722.3158,-184193.7076,-187500.0224,-187500.0224,0.342,-0.07,0.916,192,0,0,0,0,0,0,0,0,0,0
 2023-06-27 18:21:43.572,-187500.0224,-187500.0224,-187500.0224,-172449.2517,-185924.6043,-183200.262,-187500.0224,-187500.0224,0.342,-0.07,0.916,192,0,0,0,0,0,0,0,0,0,0
 2023-06-27 18:21:43.572,-187500.0224,-187500.0224,-187500.0224,-172766.6465,-186585.456,-183790.7057,-187500.0224,-187500.0224,0.342,-0.07,0.916,192,0,0,0,0,0,0,0,0,0,0
 2023-06-27 18:21:43.572,-187500.0224,-187500.0224,-187500.0224,-173554.7243,-187500.0224,-185237.4,-187500.0224,-187500.0224,0.342,-0.07,0.916,192,0,0,0,0,0,0,0,0,0,0
 2023-06-27 18:21:43.572,-187500.0224,-187500.0224,-187500.0224,-173690.7346,-187500.0224,-185478.5976,-187500.0224,-187500.0224,0.338,-0.07,0.912,192,10,144,253,208,28,128,0,0,0,0
 2023-06-27 18:21:43.572,-187500.0224,-187500.0224,-187500.0224,-173014.4379,-186753.0941,-184230.588,-187500.0224,-187500.0224,0.338,-0.07,0.912,192,0,0,0,0,0,0,0,0,0,0
 2023-06-27 18:21:43.572,-187500.0224,-187500.0224,-187500.0224,-172455.8455,-185928.65,-183209.6944,-187500.0224,-187500.0224,0.338,-0.07,0.912,192,0,0,0,0,0,0,0,0,0,0
 2023-06-27 18:21:43.572,-187500.0224,-187500.0224,-187500.0224,-172755.3141,-186558.768,-183763.8165,-187500.0224,-187500.0224,0.338,-0.07,0.912,192,0,0,0,0,0,0,0,0,0,0
 2023-06-27 18:21:43.572,-187500.0224,-187500.0224,-187500.0224,-173544.6213,-187500.0224,-185215.3835,-187500.0224,-187500.0224,0.338,-0.07,0.912,192,0,0,0,0,0,0,0,0,0,0
 2023-06-27 18:21:43.572,-187500.0224,-187500.0224,-187500.0224,-173699.3401,-187500.0224,-185490.4217,-187500.0224,-187500.0224,0.338,-0.07,0.912,192,0,0,0,0,0,0,0,0,0,0
 2023-06-27 18:21:43.572,-187500.0224,-187500.0224,-187500.0224,-173036.2756,-186784.2748,-184264.2274,-187500.0224,-187500.0224,0.338,-0.07,0.912,192,0,0,0,0,0,0,0,0,0,0
 2023-06-27 18:21:43.572,-187500.0224,-187500.0224,-187500.0224,-172463.5792,-185935.1097,-183218.7022,-187500.0224,-187500.0224,0.338,-0.07,0.912,192,0,0,0,0,0,0,0,0,0,0
 2023-06-27 18:21:43.572,-187500.0224,-187500.0224,-187500.0224,-172749.2345,-186543.9935,-183747.9915,-187500.0224,-187500.0224,0.338,-0.07,0.912,192,0,0,0,0,0,0,0,0,0,0
 2023-06-27 18:21:43.572,-187500.0224,-187500.0224,-187500.0224,-173542.2073,-187500.0224,-185205.3699,-187500.0224,-187500.0224,0.338,-0.07,0.912,192,0,0,0,0,0,0,0,0,0,0
 2023-06-27 18:21:44.052,-187500.0224,-187500.0224,-187500.0224,-173710.0689,-187500.0224,-185505.5985,-187500.0224,-187500.0224,0.346,-0.072,0.916,192,10,208,253,192,28,160,0,0,0,0
 2023-06-27 18:21:44.052,-187500.0224,-187500.0224,-187500.0224,-173055.8333,-186814.9637,-184298.2467,-187500.0224,-187500.0224,0.346,-0.072,0.916,192,0,0,0,0,0,0,0,0,0,0
 2023-06-27 18:21:44.052,-187500.0224,-187500.0224,-187500.0224,-172473.5928,-185945.3468,-183232.9402,-187500.0224,-187500.0224,0.346,-0.072,0.916,192,0,0,0,0,0,0,0,0,0,0
 2023-06-27 18:21:44.052,-187500.0224,-187500.0224,-187500.0224,-172740.1597,-186523.4299,-183727.4055,-187500.0224,-187500.0224,0.346,-0.072,0.916,192,0,0,0,0,0,0,0,0,0,0
 2023-06-27 18:21:44.052,-187500.0224,-187500.0224,-187500.0224,-173533.289,-187500.0224,-185185.9686,-187500.0224,-187500.0224,0.346,-0.072,0.916,192,0,0,0,0,0,0,0,0,0,0
 2023-06-27 18:21:44.052,-187500.0224,-187500.0224,-187500.0224,-173718.9202,-187500.0224,-185517.1544,-187500.0224,-187500.0224,0.346,-0.072,0.916,192,0,0,0,0,0,0,0,0,0,0
 2023-06-27 18:21:44.052,-187500.0224,-187500.0224,-187500.0224,-173075.5252,-186843.5069,-184329.0027,-187500.0224,-187500.0224,0.346,-0.072,0.916,192,0,0,0,0,0,0,0,0,0,0
 2023-06-27 18:21:44.052,-187500.0224,-187500.0224,-187500.0224,-172481.1253,-185952.2535,-183242.1938,-187500.0224,-187500.0224,0.346,-0.072,0.916,192,0,0,0,0,0,0,0,0,0,0
 2023-06-27 18:21:44.052,-187500.0224,-187500.0224,-187500.0224,-172732.426,-186506.1744,-183708.8089,-187500.0224,-187500.0224,0.346,-0.072,0.916,192,0,0,0,0,0,0,0,0,0,0
 2023-06-27 18:21:44.052,-187500.0224,-187500.0224,-187500.0224,-173529.2433,-187500.0224,-185172.7364,-187500.0224,-187500.0224,0.346,-0.072,0.916,192,0,0,0,0,0,0,0,0,0,0
 2023-06-27 18:21:44.052,-187500.0224,-187500.0224,-187500.0224,-173728.9561,-187500.0224,-185530.2302,-187500.0224,-187500.0224,0.344,-0.07,0.918,192,10,192,253,208,28,176,0,0,0,0
 2023-06-27 18:21:44.052,-187500.0224,-187500.0224,-187500.0224,-173094.5242,-186872.4077,-184360.2058,-187500.0224,-187500.0224,0.344,-0.07,0.918,192,0,0,0,0,0,0,0,0,0,0
 2023-06-27 18:21:44.052,-187500.0224,-187500.0224,-187500.0224,-172485.9756,-185955.8968,-183248.4523,-187500.0224,-187500.0224,0.344,-0.07,0.918,192,0,0,0,0,0,0,0,0,0,0
 2023-06-27 18:21:44.052,-187500.0224,-187500.0224,-187500.0224,-172720.1772,-186481.3416,-183682.3668,-187500.0224,-187500.0224,0.344,-0.07,0.918,192,0,0,0,0,0,0,0,0,0,0
 2023-06-27 18:21:44.052,-187500.0224,-187500.0224,-187500.0224,-173515.8546,-187500.0224,-185146.3166,-187500.0224,-187500.0224,0.344,-0.07,0.918,192,0,0,0,0,0,0,0,0,0,0
 2023-06-27 18:21:44.052,-187500.0224,-187500.0224,-187500.0224,-173730.6549,-187500.0224,-185532.8453,-187500.0224,-187500.0224,0.344,-0.07,0.918,192,0,0,0,0,0,0,0,0,0,0
 2023-06-27 18:21:44.052,-187500.0224,-187500.0224,-187500.0224,-173111.5115,-186900.325,-184388.9948,-187500.0224,-187500.0224,0.344,-0.07,0.918,192,0,0,0,0,0,0,0,0,0,0
 2023-06-27 18:21:44.052,-187500.0224,-187500.0224,-187500.0224,-172494.067,-185964.4352,-183258.4212,-187500.0224,-187500.0224,0.344,-0.07,0.918,192,0,0,0,0,0,0,0,0,0,0
 2023-06-27 18:21:44.052,-187500.0224,-187500.0224,-187500.0224,-172712.8682,-186464.8684,-183663.636,-187500.0224,-187500.0224,0.344,-0.07,0.918,192,0,0,0,0,0,0,0,0,0,0
 2023-06-27 18:21:44.052,-187500.0224,-187500.0224,-187500.0224,-173506.2433,-187500.0224,-185126.0659,-187500.0224,-187500.0224,0.344,-0.07,0.918,192,0,0,0,0,0,0,0,0,0,0
 2023-06-27 18:21:44.052,-187500.0224,-187500.0224,-187500.0224,-173735.9969,-187500.0224,-185539.5285,-187500.0224,-187500.0224,0.346,-0.07,0.922,192,10,208,253,208,28,208,0,0,0,0
